T[Â°C]	330nm [counts / mm]	S.D.	First derivative	S.D. of first derivative
19.99929	7999.026	35.43312	-119.6677	5.892947
20.05328	7992.453	35.40104	-119.4689	5.746077
20.10727	7985.883	35.38227	-119.2704	5.599376
20.16126	7979.317	35.37624	-119.0721	5.452882
20.21525	7972.755	35.38089	-118.8741	5.30662
20.26924	7966.2	35.39478	-118.6765	5.160635
20.32323	7959.651	35.41561	-118.4791	5.014958
20.37722	7953.11	35.44235	-118.2821	4.869649
20.43121	7946.578	35.47297	-118.0856	4.724748
20.4852	7940.057	35.5058	-117.8894	4.580304
20.53919	7933.545	35.54036	-117.6938	4.436377
20.59318	7927.045	35.57627	-117.4987	4.29303
20.64717	7920.553	35.61379	-117.3042	4.150314
20.70116	7914.07	35.65447	-117.1103	4.008297
20.75515	7907.591	35.70147	-116.917	3.867051
20.80914	7901.114	35.75965	-116.7244	3.726636
20.86313	7894.633	35.84056	-116.5325	3.587134
20.91712	7888.142	35.97297	-116.3414	3.448609
20.97111	7881.635	36.20612	-116.151	3.31115
21.0251	7875.242	36.41654	-115.9615	3.174835
21.07909	7868.857	36.57097	-115.7727	3.039751
21.13308	7862.49	36.6536	-115.5848	2.905987
21.18707	7856.151	36.65433	-115.3978	2.773649
21.24106	7849.853	36.56731	-115.2116	2.642837
21.29505	7843.595	36.39631	-115.0263	2.513666
21.34904	7837.377	36.1552	-114.8419	2.386263
21.40303	7831.194	35.86339	-114.6582	2.26077
21.45702	7825.04	35.54239	-114.4754	2.137333
21.51101	7818.914	35.2208	-114.2933	2.016134
21.565	7812.814	34.92427	-114.112	1.897373
21.61899	7806.742	34.66161	-113.9314	1.781288
21.67298	7800.692	34.42794	-113.7514	1.668169
21.72697	7794.66	34.21384	-113.572	1.558364
21.78096	7788.642	34.01194	-113.3931	1.452319
21.83495	7782.633	33.81485	-113.2147	1.350582
21.88894	7776.628	33.61583	-113.0367	1.253876
21.94293	7770.62	33.40839	-112.8589	1.16311
21.99692	7764.603	33.18566	-112.6814	1.079443
22.05091	7758.58	32.95664	-112.5039	1.004321
22.1049	7752.554	32.74019	-112.3263	0.9394996
22.1589	7746.529	32.55989	-112.1485	0.8870044
22.21288	7740.506	32.43548	-111.9701	0.8489819
22.26687	7734.492	32.38245	-111.7911	0.8274224
22.32087	7728.492	32.41488	-111.611	0.8237796
22.37486	7722.516	32.54115	-111.4297	0.8386672
22.42885	7716.57	32.76048	-111.247	0.8717312
22.48284	7710.658	33.05856	-111.063	0.9217875
22.53683	7704.78	33.41374	-110.8781	0.987084
22.59082	7698.932	33.80561	-110.6931	1.065432
22.64481	7693.104	34.21249	-110.5643	1.134659
22.6988	7687.286	34.61186	-110.4405	1.200966
22.75279	7681.46	34.98377	-110.3216	1.263212
22.80678	7675.611	35.31828	-110.2076	1.320434
22.86077	7669.727	35.60863	-110.0982	1.371865
22.91476	7663.805	35.84499	-109.9933	1.416891
22.96875	7657.849	36.02144	-109.8926	1.455065
23.02274	7651.874	36.14516	-109.7959	1.486091
23.07673	7645.898	36.22999	-109.7029	1.509845
23.13072	7639.945	36.29	-109.6134	1.526322
23.18471	7634.039	36.32705	-109.5274	1.535664
23.2387	7628.197	36.33706	-109.4445	1.538144
23.29269	7622.42	36.31633	-109.3646	1.534187
23.34668	7616.701	36.2638	-109.2877	1.524348
23.40067	7611.026	36.1749	-109.2135	1.509322
23.45466	7605.376	36.03969	-109.1418	1.489964
23.50865	7599.734	35.85472	-109.0724	1.467305
23.56264	7594.083	35.62421	-109.0051	1.442609
23.61663	7588.405	35.35343	-108.9397	1.417376
23.67062	7582.687	35.05214	-108.8758	1.39334
23.72461	7576.917	34.73769	-108.8134	1.372404
23.7786	7571.092	34.42744	-108.7521	1.356537
23.83259	7565.217	34.12968	-108.6919	1.347604
23.88658	7559.3	33.84253	-108.6324	1.347204
23.94057	7553.357	33.5587	-108.5738	1.356476
23.99456	7547.402	33.27184	-108.516	1.375907
24.04855	7541.443	32.97589	-108.459	1.405317
24.10254	7535.486	32.67134	-108.4031	1.44386
24.15653	7529.536	32.36577	-108.3482	1.490143
24.21052	7523.593	32.07381	-108.2945	1.542368
24.26451	7517.657	31.81621	-108.2422	1.598538
24.3185	7511.723	31.61305	-108.1911	1.656622
24.37249	7505.785	31.47824	-108.1414	1.714677
24.42648	7499.833	31.41846	-108.093	1.770901
24.48047	7493.862	31.43626	-108.0455	1.823696
24.53446	7487.868	31.52315	-107.9987	1.871704
24.58845	7481.848	31.6636	-107.9524	1.913828
24.64244	7475.813	31.8304	-107.906	1.949226
24.69643	7469.777	31.98825	-107.8592	1.977241
24.75042	7463.757	32.1097	-107.8115	1.997392
24.80441	7457.766	32.18494	-107.7625	2.009362
24.8584	7451.809	32.20895	-107.7119	2.012978
24.9124	7445.886	32.17019	-107.6591	2.008215
24.96638	7440.003	32.0634	-107.6039	1.99519
25.02037	7434.163	31.89259	-107.5459	1.97415
25.07437	7428.372	31.67306	-107.4848	1.945482
25.12836	7422.629	31.42108	-107.4203	1.909686
25.18235	7416.934	31.14773	-107.3524	1.867338
25.23634	7411.275	30.86749	-107.2809	1.819035
25.29033	7405.644	30.59717	-107.2058	1.765349
25.34432	7400.03	30.34776	-107.127	1.706835
25.39831	7394.42	30.11924	-107.0446	1.643998
25.4523	7388.798	29.90373	-106.9585	1.577345
25.50629	7383.161	29.68645	-106.869	1.507387
25.56028	7377.506	29.45274	-106.7762	1.434676
25.61427	7371.832	29.19717	-106.6802	1.35983
25.66826	7366.13	28.92732	-106.5814	1.283516
25.72225	7360.393	28.66559	-106.48	1.206488
25.77624	7354.618	28.43589	-106.3763	1.129517
25.83023	7348.81	28.25735	-106.2706	1.053488
25.88422	7342.981	28.14931	-106.1634	0.9793617
25.93821	7337.154	28.13463	-106.0551	0.9082352
25.9922	7331.348	28.22984	-105.9462	0.8413053
26.04619	7325.573	28.43712	-105.8371	0.7798876
26.10018	7319.832	28.74121	-105.7283	0.7254628
26.15417	7314.117	29.12019	-105.6204	0.6795449
26.20816	7308.419	29.54643	-105.5138	0.6435712
26.26215	7302.729	29.99279	-105.4089	0.6186711
26.31614	7297.037	30.43632	-105.3061	0.6054243
26.37013	7291.333	30.85483	-105.2054	0.6036979
26.42412	7285.614	31.23194	-105.1073	0.6125928
26.47811	7279.872	31.55863	-105.0116	0.6306495
26.5321	7274.103	31.83547	-104.9184	0.6560965
26.58609	7268.313	32.06583	-104.8275	0.687134
26.64008	7262.518	32.24801	-104.7389	0.7220803
26.69407	7256.736	32.37875	-104.6523	0.759445
26.74806	7250.987	32.46204	-104.5676	0.7979486
26.80205	7245.287	32.50723	-104.4845	0.8365085
26.85604	7239.639	32.51944	-104.4029	0.8742276
26.91003	7234.047	32.50119	-104.3226	0.9103889
26.96402	7228.507	32.44629	-104.2435	0.9443748
27.01801	7223.016	32.3455	-104.1653	0.9757292
27.072	7217.566	32.19389	-104.0878	1.004099
27.12599	7212.146	31.9831	-104.0108	1.029293
27.17998	7206.736	31.70945	-103.9343	1.051238
27.23397	7201.313	31.38312	-103.8579	1.070009
27.28796	7195.864	31.02461	-103.7814	1.08576
27.34195	7190.377	30.66252	-103.7046	1.098735
27.39594	7184.845	30.32426	-103.6273	1.109199
27.44993	7179.269	30.03245	-103.5493	1.117396
27.50392	7173.664	29.801	-103.4705	1.12352
27.55791	7168.049	29.63692	-103.3909	1.127695
27.6119	7162.442	29.53537	-103.3106	1.130009
27.6659	7156.856	29.48684	-103.2298	1.130464
27.71988	7151.299	29.4741	-103.1486	1.129006
27.77387	7145.767	29.47487	-103.0672	1.125509
27.82787	7140.253	29.47293	-102.986	1.119816
27.88186	7134.75	29.46154	-102.9052	1.111748
27.93585	7129.249	29.44285	-102.825	1.101122
27.98984	7123.745	29.42471	-102.7456	1.087769
28.04383	7118.229	29.40687	-102.6672	1.071522
28.09782	7112.692	29.38579	-102.59	1.05228
28.15181	7107.125	29.35258	-102.5141	1.030012
28.2058	7101.531	29.29109	-102.4395	1.004818
28.25979	7095.917	29.19028	-102.3663	0.9769191
28.31378	7090.294	29.04476	-102.2946	0.9466532
28.36777	7084.667	28.85917	-102.2243	0.9144759
28.42176	7079.04	28.64197	-102.1555	0.8809658
28.47575	7073.41	28.40081	-102.0882	0.8467977
28.52974	7067.787	28.13913	-102.0226	0.8127006
28.58373	7062.177	27.86416	-101.9585	0.7794167
28.63772	7056.586	27.5872	-101.896	0.7475971
28.69171	7051.019	27.3185	-101.835	0.7178089
28.7457	7045.473	27.06922	-101.7754	0.6904963
28.79969	7039.946	26.85203	-101.7172	0.6659461
28.85368	7034.441	26.68046	-101.6603	0.6443363
28.90767	7028.957	26.562	-101.6046	0.6256403
28.96166	7023.492	26.49687	-101.5498	0.6097064
29.01565	7018.044	26.48416	-101.4959	0.5962427
29.06964	7012.617	26.52175	-101.4428	0.5848736
29.12363	7007.219	26.60933	-101.3902	0.5751545
29.17762	7001.85	26.74574	-101.3381	0.5665889
29.23161	6996.497	26.92681	-101.2864	0.5586959
29.2856	6991.146	27.14689	-101.2351	0.5510197
29.33959	6985.787	27.39105	-101.1839	0.5431882
29.39358	6980.411	27.6469	-101.133	0.5349157
29.44757	6975.014	27.90946	-101.0823	0.52603
29.50156	6969.597	28.18397	-101.0318	0.5165076
29.55555	6964.16	28.47259	-100.9817	0.5064992
29.60954	6958.708	28.77815	-100.9321	0.4963472
29.66353	6953.248	29.09775	-100.8831	0.4865772
29.71752	6947.789	29.41966	-100.8348	0.4778639
29.77151	6942.337	29.72595	-100.7874	0.4710208
29.8255	6936.896	29.99733	-100.7408	0.466876
29.87949	6931.468	30.22205	-100.6953	0.4661984
29.93348	6926.058	30.39518	-100.6508	0.469483
29.98747	6920.664	30.51387	-100.6074	0.4768903
30.04146	6915.276	30.58314	-100.565	0.4881781
30.09545	6909.878	30.61137	-100.5235	0.5027527
30.14944	6904.453	30.60574	-100.4827	0.5197725
30.20343	6898.994	30.57287	-100.4424	0.5382589
30.25742	6893.51	30.51661	-100.4025	0.5572225
30.31141	6888.012	30.43428	-100.3625	0.575762
30.3654	6882.51	30.31751	-100.3225	0.5931384
30.4194	6877.012	30.15362	-100.2822	0.6088408
30.47338	6871.533	29.93229	-100.2416	0.6226301
30.52737	6866.09	29.65256	-100.2005	0.6345491
30.58137	6860.697	29.32755	-100.1591	0.6449445
30.63535	6855.359	28.97322	-100.1172	0.6544104
30.68935	6850.077	28.59842	-100.0749	0.6637437
30.74334	6844.837	28.20977	-100.0323	0.6738925
30.79733	6839.624	27.81844	-99.98934	0.6858315
30.85132	6834.417	27.44061	-99.94611	0.7004431
30.90531	6829.198	27.09301	-99.90261	0.718381
30.9593	6823.942	26.79228	-99.85885	0.7399886
31.01329	6818.634	26.54686	-99.81481	0.7652292
31.06728	6813.27	26.35952	-99.77047	0.7937139
31.12127	6807.855	26.22912	-99.7258	0.8247406
31.17526	6802.401	26.15732	-99.68077	0.8573641
31.22925	6796.914	26.13924	-99.63538	0.8904713
31.28324	6791.406	26.16042	-99.58965	0.9228819
31.33723	6785.895	26.20661	-99.54364	0.9533849
31.39122	6780.395	26.26968	-99.49744	0.9808149
31.44521	6774.92	26.35137	-99.4512	1.004078
31.4992	6769.474	26.45069	-99.40506	1.022213
31.55319	6764.053	26.56313	-99.35915	1.034352
31.60718	6758.648	26.68374	-99.31359	1.039821
31.66117	6753.248	26.81335	-99.26842	1.038106
31.71516	6747.844	26.9584	-99.22366	1.028853
31.76915	6742.424	27.12143	-99.17924	1.011889
31.82314	6736.984	27.30599	-99.13504	0.9871839
31.87713	6731.521	27.50997	-99.0909	0.9548959
31.93112	6726.041	27.72134	-99.04667	0.9153529
31.98511	6720.558	27.92373	-99.00211	0.8690708
32.0391	6715.083	28.09528	-98.95699	0.8167343
32.09309	6709.627	28.2108	-98.91103	0.7591999
32.14708	6704.198	28.25535	-98.86397	0.6974392
32.20107	6698.808	28.22572	-98.81553	0.6325223
32.25506	6693.463	28.13539	-98.76546	0.565627
32.30905	6688.167	28.00095	-98.71358	0.4979779
32.36304	6682.916	27.83636	-98.65972	0.4308972
32.41703	6677.694	27.64577	-98.60376	0.3658002
32.47102	6672.487	27.42733	-98.54562	0.3041973
32.52501	6667.286	27.18779	-98.48524	0.2477388
32.579	6662.08	26.93988	-98.42262	0.1983406
32.63299	6656.868	26.69651	-98.35773	0.1582824
32.68699	6651.648	26.46523	-98.29059	0.1301633
32.74097	6646.423	26.24852	-98.22122	0.115872
32.79496	6641.194	26.04035	-98.14974	0.1143771
32.84895	6635.963	25.83638	-98.07631	0.1215422
32.90294	6630.728	25.63599	-98.00112	0.1331204
32.95694	6625.489	25.43831	-97.92443	0.146788
33.01093	6620.25	25.24296	-97.84652	0.1619922
33.06491	6615.011	25.05641	-97.76772	0.1792005
33.1189	6609.772	24.89665	-97.68833	0.1992623
33.17289	6604.536	24.78393	-97.60872	0.2229633
33.22689	6599.3	24.73189	-97.52921	0.2507479
33.28088	6594.063	24.74345	-97.45013	0.2826487
33.33487	6588.814	24.81356	-97.37183	0.3183145
33.38885	6583.543	24.93292	-97.29467	0.3571511
33.44284	6578.25	25.09739	-97.21899	0.3984198
33.49684	6572.93	25.30376	-97.14509	0.4413167
33.55083	6567.589	25.54224	-97.0733	0.4850106
33.60482	6562.233	25.79466	-97.00386	0.5286943
33.65881	6556.874	26.04788	-96.93702	0.5715993
33.7128	6551.519	26.29527	-96.87292	0.6130171
33.76679	6546.177	26.53629	-96.81168	0.6523279
33.82078	6540.848	26.77007	-96.75332	0.6889521
33.87477	6535.531	26.99654	-96.69781	0.7223898
33.92876	6530.225	27.21912	-96.64507	0.752146
33.98275	6524.931	27.44555	-96.59498	0.7777784
34.03674	6519.649	27.67945	-96.54732	0.7988949
34.09073	6514.383	27.91921	-96.50183	0.8151363
34.14472	6509.136	28.15667	-96.45823	0.8261753
34.19871	6503.914	28.37676	-96.41621	0.8316807
34.2527	6498.721	28.56357	-96.37548	0.8314183
34.30669	6493.563	28.70907	-96.33572	0.8252568
34.36068	6488.44	28.80926	-96.29662	0.8132168
34.41467	6483.347	28.85721	-96.25787	0.7955155
34.46866	6478.282	28.84526	-96.21918	0.7726131
34.52265	6473.241	28.76883	-96.18027	0.7452651
34.57664	6468.218	28.62848	-96.14088	0.714592
34.63063	6463.214	28.42391	-96.10075	0.6821095
34.68462	6458.221	28.15963	-96.05967	0.6497759
34.73861	6453.226	27.8469	-96.01746	0.6199479
34.7926	6448.217	27.5063	-95.974	0.5952769
34.84659	6443.184	27.16256	-95.92922	0.5783697
34.90058	6438.12	26.83506	-95.88314	0.5713913
34.95457	6433.021	26.53365	-95.83578	0.5755654
35.00856	6427.884	26.26315	-95.78727	0.5908818
35.06255	6422.703	26.02318	-95.73776	0.6161253
35.11654	6417.479	25.81286	-95.68748	0.6492352
35.17053	6412.226	25.63723	-95.63665	0.6877549
35.22452	6406.965	25.51085	-95.58553	0.7292524
35.27851	6401.716	25.44493	-95.5344	0.771544
35.3325	6396.493	25.44278	-95.48351	0.8128003
35.38649	6391.296	25.4929	-95.4331	0.8515835
35.44048	6386.122	25.5839	-95.38336	0.8867838
35.49447	6380.958	25.70015	-95.33448	0.917592
35.54846	6375.793	25.81762	-95.28662	0.9434465
35.60246	6370.615	25.91714	-95.23991	0.9640293
35.65644	6365.421	25.98694	-95.19446	0.9791877
35.71043	6360.217	26.0222	-95.15037	0.988948
35.76442	6355.007	26.02474	-95.1077	0.9934258
35.81841	6349.796	25.99815	-95.0665	0.9928511
35.87241	6344.588	25.94856	-95.02676	0.9875139
35.9264	6339.383	25.88216	-94.98846	0.9777705
35.98038	6334.181	25.8049	-94.95159	0.9640483
36.03437	6328.987	25.71977	-94.91608	0.9468117
36.08837	6323.806	25.62927	-94.88184	0.9265951
36.14236	6318.641	25.52834	-94.84875	0.9039283
36.19635	6313.496	25.40519	-94.81666	0.8793549
36.25034	6308.374	25.24905	-94.78535	0.8534431
36.30433	6303.276	25.0534	-94.7546	0.8267358
36.35832	6298.202	24.81669	-94.72408	0.7997752
36.41231	6293.145	24.54281	-94.69346	0.7730997
36.4663	6288.09	24.24311	-94.66237	0.7472038
36.52029	6283.02	23.93658	-94.63046	0.7225459
36.57428	6277.931	23.64078	-94.59738	0.6995147
36.62827	6272.823	23.37025	-94.56284	0.6784323
36.68226	6267.697	23.13702	-94.52657	0.6596102
36.73625	6262.555	22.96029	-94.48833	0.6432889
36.79024	6257.407	22.85781	-94.44795	0.6296989
36.84423	6252.263	22.83969	-94.4053	0.6190435
36.89822	6247.136	22.90583	-94.36025	0.6114798
36.95221	6242.038	23.05156	-94.31276	0.6070735
37.0062	6236.974	23.26369	-94.26276	0.6057855
37.06019	6231.941	23.5236	-94.21022	0.6074691
37.11418	6226.932	23.80948	-94.15513	0.6118901
37.16817	6221.934	24.10179	-94.0975	0.6187232
37.22216	6216.941	24.3819	-94.03734	0.6276034
37.27615	6211.949	24.63528	-93.97462	0.6381469
37.33014	6206.952	24.86247	-93.90936	0.6499957
37.38413	6201.942	25.06948	-93.84158	0.662816
37.43812	6196.913	25.26299	-93.77126	0.6762977
37.49211	6191.864	25.44614	-93.69841	0.6901526
37.5461	6186.798	25.62519	-93.62309	0.7041504
37.60009	6181.719	25.80014	-93.54537	0.7180914
37.65408	6176.628	25.96945	-93.46543	0.7318757
37.70807	6171.531	26.1266	-93.38345	0.7454563
37.76206	6166.431	26.25995	-93.29974	0.758836
37.81605	6161.335	26.35235	-93.21454	0.7720335
37.87004	6156.25	26.38667	-93.12815	0.7850559
37.92403	6151.181	26.34764	-93.04082	0.7978794
37.97802	6146.126	26.23014	-92.95284	0.8104776
38.03201	6141.091	26.04436	-92.86446	0.8227901
38.086	6136.071	25.80353	-92.77593	0.8347279
38.13999	6131.059	25.52337	-92.68749	0.8461965
38.19398	6126.043	25.21861	-92.59933	0.8570806
38.24797	6121.016	24.90594	-92.51157	0.8672718
38.30196	6115.968	24.59788	-92.42429	0.8766569
38.35595	6110.905	24.3061	-92.33753	0.8851234
38.40994	6105.829	24.03936	-92.2513	0.8925612
38.46394	6100.742	23.80616	-92.16557	0.8988771
38.51793	6095.65	23.61144	-92.08028	0.9040337
38.57191	6090.563	23.45353	-91.99541	0.9080717
38.6259	6085.489	23.32094	-91.9109	0.9110954
38.67989	6080.439	23.20564	-91.82668	0.9132859
38.73389	6075.42	23.10933	-91.74271	0.9149348
38.78788	6070.433	23.03932	-91.65892	0.9164094
38.84187	6065.475	23.00051	-91.57533	0.9181559
38.89585	6060.54	22.99021	-91.49189	0.9206159
38.94984	6055.622	22.99952	-91.40861	0.924215
39.00384	6050.717	23.01563	-91.32546	0.929276
39.05783	6045.817	23.0306	-91.24245	0.9359839
39.11182	6040.91	23.04144	-91.15952	0.944366
39.16581	6035.992	23.0463	-91.07666	0.9542806
39.2198	6031.067	23.03765	-90.99378	0.9654142
39.27379	6026.146	23.0123	-90.9108	0.9773251
39.32778	6021.231	22.96933	-90.82756	0.9894776
39.38177	6016.323	22.90457	-90.74394	1.001257
39.43576	6011.421	22.81593	-90.65978	1.012024
39.48975	6006.536	22.70446	-90.5749	1.021149
39.54374	6001.677	22.57178	-90.48915	1.028063
39.59773	5996.857	22.42547	-90.40242	1.032289
39.65172	5992.079	22.27269	-90.31467	1.033462
39.70571	5987.344	22.12242	-90.22592	1.031327
39.7597	5982.646	21.98088	-90.13625	1.025725
39.81369	5977.975	21.84973	-90.04581	1.016602
39.86768	5973.313	21.72825	-89.95475	1.003991
39.92167	5968.644	21.60632	-89.86324	0.9879777
39.97566	5963.957	21.47746	-89.77151	0.9686436
40.02965	5959.245	21.34178	-89.67981	0.9460781
40.08364	5954.505	21.20354	-89.58842	0.9203925
40.13763	5949.728	21.06637	-89.49767	0.8917087
40.19162	5944.91	20.93863	-89.40788	0.8601718
40.24561	5940.051	20.83227	-89.31935	0.8259738
40.2996	5935.16	20.76332	-89.2324	0.7893878
40.35359	5930.251	20.74719	-89.14731	0.7507786
40.40758	5925.346	20.79323	-89.06437	0.7106293
40.46157	5920.458	20.9098	-88.98382	0.6695349
40.51556	5915.592	21.09677	-88.90587	0.6281951
40.56955	5910.746	21.34308	-88.83069	0.587414
40.62354	5905.912	21.63325	-88.75837	0.548092
40.67753	5901.085	21.94591	-88.68897	0.5111728
40.73152	5896.266	22.26033	-88.62249	0.4776425
40.78551	5891.45	22.55566	-88.5589	0.448467
40.8395	5886.635	22.80816	-88.49813	0.4245174
40.89349	5881.817	23.00045	-88.44012	0.4064566
40.94748	5876.992	23.12499	-88.38472	0.3946229
41.00147	5872.154	23.18659	-88.33179	0.3889722
41.05546	5867.303	23.19661	-88.28117	0.3891247
41.10946	5862.443	23.17169	-88.23267	0.3944346
41.16344	5857.585	23.13428	-88.18613	0.4041477
41.21743	5852.749	23.10177	-88.14133	0.4175276
41.27142	5847.946	23.08091	-88.09807	0.4339201
41.32542	5843.186	23.06852	-88.05614	0.4527939
41.37941	5838.461	23.05687	-88.01527	0.4737032
41.4334	5833.769	23.03736	-87.9752	0.496278
41.48738	5829.1	23.00157	-87.9356	0.5201695
41.54137	5824.45	22.9446	-87.89614	0.5450602
41.59537	5819.807	22.86317	-87.85643	0.5706469
41.64936	5815.162	22.75456	-87.81609	0.5965841
41.70335	5810.506	22.61614	-87.77473	0.622504
41.75734	5805.837	22.45034	-87.73199	0.6480058
41.81133	5801.155	22.26762	-87.68756	0.6726822
41.86532	5796.458	22.08044	-87.64114	0.6961319
41.91931	5791.749	21.89972	-87.59248	0.717997
41.9733	5787.034	21.73973	-87.54138	0.7379872
42.02729	5782.326	21.61653	-87.48772	0.7558694
42.08128	5777.635	21.53616	-87.43147	0.771448
42.13527	5772.965	21.494	-87.37263	0.7845823
42.18926	5768.31	21.47793	-87.31132	0.795157
42.24325	5763.659	21.47663	-87.24767	0.8030689
42.29724	5759	21.48111	-87.18185	0.8082182
42.35123	5754.328	21.48332	-87.11409	0.8105216
42.40522	5749.647	21.47422	-87.04459	0.8098752
42.45921	5744.962	21.4425	-86.97361	0.8061751
42.5132	5740.271	21.3796	-86.90138	0.7993255
42.56719	5735.575	21.28657	-86.82815	0.7892252
42.62118	5730.869	21.16981	-86.75413	0.7758008
42.67517	5726.151	21.04407	-86.67948	0.7590158
42.72916	5721.419	20.92849	-86.60435	0.7389006
42.78315	5716.68	20.83716	-86.52885	0.7155873
42.83714	5711.94	20.77516	-86.45311	0.6893259
42.89113	5707.208	20.73849	-86.37724	0.6604928
42.94512	5702.488	20.71277	-86.30139	0.6295784
42.99911	5697.777	20.68637	-86.22572	0.5972033
43.0531	5693.069	20.64731	-86.15034	0.5640895
43.10709	5688.361	20.59009	-86.07542	0.5310624
43.16108	5683.652	20.51155	-86.00115	0.499031
43.21507	5678.94	20.40581	-85.92774	0.4689789
43.26906	5674.227	20.2735	-85.85544	0.441884
