T[Â°C]	330nm [counts / mm]	S.D.	First derivative	S.D. of first derivative
20.00115	3421.176		-49.2247	
20.0551	3418.573		-49.20193	
20.10905	3415.966		-49.17857	
20.16299	3413.355		-49.15463	
20.21694	3410.741		-49.13007	
20.27089	3408.121		-49.1049	
20.32484	3405.496		-49.07909	
20.37879	3402.866		-49.05264	
20.43273	3400.232		-49.02553	
20.48668	3397.597		-48.99778	
20.54063	3394.962		-48.96936	
20.59458	3392.33		-48.94028	
20.64853	3389.702		-48.91055	
20.70247	3387.08		-48.88015	
20.75642	3384.465		-48.8491	
20.81037	3381.86		-48.8174	
20.86432	3379.264		-48.78506	
20.91827	3376.677		-48.75209	
20.97221	3374.09		-48.7185	
21.02616	3371.494		-48.68431	
21.08011	3368.877		-48.64954	
21.13406	3366.225		-48.61419	
21.18801	3363.537		-48.57831	
21.24195	3360.824		-48.5419	
21.2959	3358.107		-48.505	
21.34985	3355.403		-48.46764	
21.4038	3352.719		-48.42983	
21.45775	3350.064		-48.39163	
21.51169	3347.44		-48.35305	
21.56564	3344.847		-48.31414	
21.61959	3342.283		-48.27492	
21.67354	3339.735		-48.23543	
21.72749	3337.191		-48.19571	
21.78144	3334.642		-48.15581	
21.83538	3332.07		-48.11576	
21.88933	3329.467		-48.07563	
21.94328	3326.823		-48.03547	
21.99723	3324.137		-47.99532	
22.05117	3321.412		-47.95526	
22.10512	3318.663		-47.91533	
22.15907	3315.908		-47.87559	
22.21302	3313.163		-47.83606	
22.26697	3310.433		-47.79674	
22.32092	3307.723		-47.75753	
22.37486	3305.035		-47.71824	
22.42881	3302.364		-47.67848	
22.48276	3299.702		-47.6376	
22.53671	3297.045		-47.59474	
22.59065	3294.389		-47.54891	
22.6446	3291.736		-47.50019	
22.69855	3289.083		-47.45393	
22.7525	3286.428		-47.41034	
22.80645	3283.777		-47.36955	
22.8604	3281.138		-47.33166	
22.91434	3278.524		-47.29667	
22.96829	3275.937		-47.26451	
23.02224	3273.383		-47.23509	
23.07619	3270.865		-47.2082	
23.13013	3268.385		-47.18362	
23.18408	3265.938		-47.16106	
23.23803	3263.523		-47.14023	
23.29198	3261.129		-47.12078	
23.34593	3258.749		-47.10235	
23.39988	3256.374		-47.08455	
23.45382	3254.001		-47.06695	
23.50777	3251.63		-47.0491	
23.56172	3249.265		-47.03053	
23.61567	3246.91		-47.01079	
23.66961	3244.565		-46.98943	
23.72356	3242.23		-46.96603	
23.77751	3239.903		-46.94028	
23.83146	3237.577		-46.91188	
23.88541	3235.253		-46.88059	
23.93936	3232.926		-46.84623	
23.9933	3230.584		-46.80866	
24.04725	3228.216		-46.76787	
24.1012	3225.81		-46.72392	
24.15515	3223.367		-46.67697	
24.2091	3220.89		-46.62726	
24.26304	3218.381		-46.5751	
24.31699	3215.842		-46.52084	
24.37094	3213.278		-46.46494	
24.42489	3210.696		-46.40789	
24.47884	3208.105		-46.35027	
24.53278	3205.512		-46.2927	
24.58673	3202.921		-46.23582	
24.64068	3200.333		-46.18029	
24.69463	3197.747		-46.12677	
24.74858	3195.153		-46.07583	
24.80252	3192.546		-46.028	
24.85647	3189.922		-45.98372	
24.91042	3187.273		-45.94335	
24.96437	3184.595		-45.90714	
25.01832	3181.882		-45.87524	
25.07226	3179.143		-45.84772	
25.12621	3176.388		-45.82457	
25.18016	3173.63		-45.80564	
25.23411	3170.873		-45.79073	
25.28806	3168.129		-45.77956	
25.342	3165.409		-45.77173	
25.39595	3162.726		-45.76682	
25.4499	3160.083		-45.76427	
25.50385	3157.478		-45.76346	
25.5578	3154.912		-45.76371	
25.61174	3152.382		-45.7643	
25.66569	3149.885		-45.76446	
25.71964	3147.418		-45.76346	
25.77359	3144.977		-45.76059	
25.82754	3142.555		-45.75522	
25.88148	3140.152		-45.74683	
25.93543	3137.772		-45.73502	
25.98938	3135.428		-45.71951	
26.04333	3133.133		-45.70018	
26.09728	3130.896		-45.67703	
26.15122	3128.723		-45.65019	
26.20517	3126.618		-45.61988	
26.25912	3124.575		-45.58639	
26.31307	3122.572		-45.55005	
26.36702	3120.584		-45.51126	
26.42096	3118.59		-45.47045	
26.47491	3116.567		-45.42811	
26.52886	3114.497		-45.38477	
26.58281	3112.362		-45.34098	
26.63676	3110.149		-45.29733	
26.6907	3107.85		-45.25445	
26.74465	3105.467		-45.21299	
26.7986	3103.014		-45.17356	
26.85255	3100.516		-45.13673	
26.9065	3097.992		-45.10303	
26.96044	3095.448		-45.07287	
27.01439	3092.884		-45.04662	
27.06834	3090.301		-45.02451	
27.12229	3087.696		-45.00669	
27.17624	3085.064		-44.99321	
27.23018	3082.399		-44.98396	
27.28413	3079.7		-44.97873	
27.33808	3076.973		-44.97718	
27.39203	3074.226		-44.97885	
27.44598	3071.472		-44.98315	
27.49992	3068.723		-44.98941	
27.55387	3065.996		-44.99686	
27.60782	3063.307		-45.00471	
27.66177	3060.673		-45.0121	
27.71572	3058.108		-45.01815	
27.76966	3055.619		-45.02201	
27.82361	3053.201		-45.02284	
27.87756	3050.843		-45.01987	
27.93151	3048.532		-45.01245	
27.98546	3046.258		-44.99998	
28.0394	3044.008		-44.98196	
28.09335	3041.768		-44.95805	
28.1473	3039.527		-44.92799	
28.20125	3037.28		-44.89169	
28.2552	3035.023		-44.8491	
28.30914	3032.751		-44.80033	
28.36309	3030.459		-44.74556	
28.41704	3028.138		-44.68505	
28.47099	3025.775		-44.6192	
28.52494	3023.376		-44.54848	
28.57888	3020.947		-44.47344	
28.63283	3018.486		-44.39469	
28.68678	3015.985		-44.3129	
28.74073	3013.442		-44.22878	
28.79468	3010.861		-44.14302	
28.84863	3008.259		-44.05636	
28.90257	3005.651		-43.96954	
28.95652	3003.044		-43.8833	
29.01047	3000.448		-43.79842	
29.06442	2997.872		-43.71563	
29.11836	2995.322		-43.63567	
29.17231	2992.804		-43.5592	
29.22626	2990.313		-43.48686	
29.28021	2987.844		-43.41922	
29.33416	2985.395		-43.35677	
29.38811	2982.966		-43.29989	
29.44205	2980.571		-43.24884	
29.496	2978.224		-43.20375	
29.54995	2975.931		-43.16462	
29.6039	2973.697		-43.13135	
29.65784	2971.523		-43.10374	
29.71179	2969.408		-43.0815	
29.76574	2967.344		-43.06428	
29.81969	2965.318		-43.05168	
29.87364	2963.32		-43.04326	
29.92759	2961.341		-43.03854	
29.98153	2959.369		-43.037	
30.03548	2957.386		-43.03811	
30.08943	2955.373		-43.04134	
30.14338	2953.317		-43.0462	
30.19732	2951.206		-43.0522	
30.25127	2949.043		-43.05892	
30.30522	2946.843		-43.06599	
30.35917	2944.616		-43.07312	
30.41312	2942.363		-43.08012	
30.46707	2940.088		-43.08689	
30.52101	2937.801		-43.09343	
30.57496	2935.51		-43.09976	
30.62891	2933.213		-43.10598	
30.68286	2930.905		-43.11217	
30.7368	2928.577		-43.11841	
30.79075	2926.232		-43.12474	
30.8447	2923.876		-43.13118	
30.89865	2921.511		-43.13774	
30.9526	2919.137		-43.14438	
31.00655	2916.759		-43.15102	
31.06049	2914.379		-43.1576	
31.11444	2912.006		-43.16401	
31.16839	2909.649		-43.17014	
31.22234	2907.311		-43.17588	
31.27629	2904.987		-43.18114	
31.33023	2902.67		-43.18585	
31.38418	2900.352		-43.18999	
31.43813	2898.025		-43.19356	
31.49208	2895.673		-43.1965	
31.54603	2893.283		-43.19872	
31.59997	2890.854		-43.2001	
31.65392	2888.384		-43.20048	
31.70787	2885.876		-43.19965	
31.76182	2883.332		-43.19737	
31.81577	2880.755		-43.19341	
31.86971	2878.154		-43.18751	
31.92366	2875.541		-43.17943	
31.97761	2872.928		-43.16893	
32.03156	2870.325		-43.15578	
32.08551	2867.747		-43.13972	
32.13945	2865.201		-43.12052	
32.1934	2862.688		-43.09796	
32.24735	2860.208		-43.07189	
32.3013	2857.754		-43.04221	
32.35525	2855.316		-43.0089	
32.40919	2852.888		-42.97202	
32.46314	2850.481		-42.93169	
32.51709	2848.11		-42.88808	
32.57104	2845.784		-42.84144	
32.62498	2843.506		-42.79203	
32.67893	2841.276		-42.74014	
32.73288	2839.092		-42.68609	
32.78683	2836.948		-42.63023	
32.84078	2834.839		-42.57288	
32.89473	2832.753		-42.51439	
32.94867	2830.678		-42.45501	
33.00262	2828.602		-42.39497	
33.05657	2826.514		-42.33447	
33.11052	2824.404		-42.27366	
33.16447	2822.269		-42.21268	
33.21841	2820.107		-42.15159	
33.27236	2817.918		-42.09049	
33.32631	2815.713		-42.02951	
33.38026	2813.501		-41.96886	
33.4342	2811.282		-41.90878	
33.48816	2809.056		-41.84951	
33.5421	2806.828		-41.79138	
33.59605	2804.605		-41.73466	
33.65	2802.392		-41.67962	
33.70395	2800.189		-41.62647	
33.75789	2797.997		-41.57542	
33.81184	2795.813		-41.52661	
33.86579	2793.629		-41.48019	
33.91974	2791.436		-41.43626	
33.97369	2789.219		-41.39484	
34.02763	2786.979		-41.35592	
34.08158	2784.723		-41.31943	
34.13553	2782.466		-41.28529	
34.18948	2780.223		-41.25337	
34.24343	2778.009		-41.22353	
34.29737	2775.825		-41.19561	
34.35132	2773.661		-41.16944	
34.40527	2771.508		-41.14485	
34.45922	2769.357		-41.12166	
34.51316	2767.199		-41.09969	
34.56712	2765.024		-41.0788	
34.62106	2762.826		-41.05888	
34.67501	2760.605		-41.03983	
34.72896	2758.362		-41.02156	
34.78291	2756.094		-41.00401	
34.83685	2753.802		-40.98717	
34.8908	2751.488		-40.971	
34.94475	2749.158		-40.95551	
34.9987	2746.823		-40.94069	
35.05265	2744.489		-40.92651	
35.10659	2742.16		-40.91292	
35.16054	2739.84		-40.89983	
35.21449	2737.533		-40.88711	
35.26844	2735.244		-40.87465	
35.32239	2732.977		-40.86234	
35.37634	2730.728		-40.85007	
35.43028	2728.49		-40.83777	
35.48423	2726.259		-40.82537	
35.53818	2724.035		-40.81284	
35.59212	2721.814		-40.80019	
35.64608	2719.591		-40.78746	
35.70002	2717.364		-40.77476	
35.75397	2715.139		-40.76218	
35.80792	2712.931		-40.74988	
35.86187	2710.745		-40.738	
35.91581	2708.575		-40.72666	
35.96976	2706.412		-40.71597	
36.02371	2704.248		-40.706	
36.07766	2702.078		-40.6968	
36.13161	2699.901		-40.68838	
36.18555	2697.73		-40.68073	
36.2395	2695.579		-40.67376	
36.29345	2693.454		-40.66735	
36.3474	2691.359		-40.66132	
36.40135	2689.289		-40.65546	
36.4553	2687.233		-40.64951	
36.50924	2685.18		-40.64325	
36.56319	2683.123		-40.63643	
36.61714	2681.061		-40.62886	
36.67109	2678.989		-40.62037	
36.72504	2676.903		-40.61084	
36.77898	2674.8		-40.60015	
36.83293	2672.679		-40.58824	
36.88688	2670.539		-40.57507	
36.94083	2668.38		-40.5607	
36.99477	2666.207		-40.54521	
37.04872	2664.024		-40.52877	
37.10267	2661.834		-40.51152	
37.15662	2659.635		-40.49366	
37.21057	2657.428		-40.47535	
37.26451	2655.219		-40.45678	
37.31846	2653.01		-40.43808	
37.37241	2650.797		-40.41934	
37.42636	2648.573		-40.40068	
37.48031	2646.336		-40.38213	
37.53426	2644.087		-40.36376	
37.5882	2641.829		-40.34558	
37.64215	2639.569		-40.32761	
37.6961	2637.313		-40.30988	
37.75005	2635.065		-40.29241	
37.804	2632.83		-40.27526	
37.85794	2630.607		-40.25849	
37.91189	2628.396		-40.24215	
37.96584	2626.194		-40.22632	
38.01979	2623.996		-40.2111	
38.07373	2621.799		-40.19659	
38.12768	2619.594		-40.18288	
38.18163	2617.375		-40.17002	
38.23558	2615.14		-40.15802	
38.28953	2612.888		-40.14683	
38.34348	2610.622		-40.13633	
38.39742	2608.346		-40.12632	
38.45137	2606.069		-40.11655	
38.50532	2603.8		-40.1067	
38.55927	2601.546		-40.09646	
38.61322	2599.309		-40.08552	
38.66716	2597.087		-40.07358	
38.72111	2594.88		-40.0604	
38.77506	2592.687		-40.04577	
38.82901	2590.507		-40.02951	
38.88295	2588.343		-40.01152	
38.9369	2586.197		-39.99174	
38.99085	2584.069		-39.97016	
39.0448	2581.958		-39.94683	
39.09875	2579.865		-39.92188	
39.15269	2577.792		-39.89544	
39.20664	2575.745		-39.86768	
39.26059	2573.73		-39.83878	
39.31454	2571.75		-39.80894	
39.36849	2569.802		-39.77837	
39.42244	2567.874		-39.74726	
39.47638	2565.95		-39.71584	
39.53033	2564.013		-39.68434	
39.58428	2562.053		-39.65294	
39.63823	2560.063		-39.62179	
39.69218	2558.045		-39.591	
39.74612	2555.996		-39.56062	
39.80007	2553.919		-39.53071	
39.85402	2551.812		-39.50127	
39.90797	2549.672		-39.47231	
39.96191	2547.497		-39.44382	
40.01587	2545.288		-39.4158	
40.06981	2543.052		-39.38828	
40.12376	2540.798		-39.36132	
40.17771	2538.533		-39.33496	
40.23166	2536.271		-39.30921	
40.2856	2534.01		-39.28405	
40.33955	2531.754		-39.25941	
40.3935	2529.499		-39.23516	
40.44745	2527.25		-39.21114	
40.5014	2525.014		-39.18713	
40.55534	2522.786		-39.16289	
40.60929	2520.567		-39.1382	
40.66324	2518.364		-39.11279	
40.71719	2516.181		-39.08642	
40.77114	2514.028		-39.05888	
40.82508	2511.911		-39.03	
40.87903	2509.837		-38.99964	
40.93298	2507.806		-38.96774	
40.98693	2505.816		-38.93426	
41.04087	2503.854		-38.89923	
41.09483	2501.91		-38.86269	
41.14877	2499.968		-38.82475	
41.20272	2498.01		-38.78551	
41.25667	2496.021		-38.74517	
41.31062	2493.996		-38.70394	
41.36456	2491.929		-38.66209	
41.41851	2489.819		-38.61992	
41.47246	2487.662		-38.57775	
41.52641	2485.465		-38.53591	
41.58036	2483.243		-38.49474	
41.6343	2481.008		-38.45458	
41.68825	2478.771		-38.41572	
41.7422	2476.542		-38.3784	
41.79615	2474.331		-38.34282	
41.8501	2472.149		-38.30915	
41.90405	2470.004		-38.27748	
41.95799	2467.891		-38.24791	
42.01194	2465.796		-38.22046	
42.06589	2463.707		-38.19518	
42.11983	2461.612		-38.17209	
42.17379	2459.513		-38.15121	
42.22773	2457.415		-38.1325	
42.28168	2455.332		-38.11591	
42.33563	2453.276		-38.10129	
42.38958	2451.256		-38.08848	
42.44352	2449.278		-38.07728	
42.49747	2447.348		-38.06747	
42.55142	2445.467		-38.05882	
42.60537	2443.625		-38.05107	
42.65932	2441.809		-38.04395	
42.71326	2440.006		-38.03714	
42.76721	2438.208		-38.03032	
42.82116	2436.402		-38.02319	
42.87511	2434.577		-38.01543	
42.92906	2432.726		-38.00677	
42.98301	2430.844		-37.99694	
43.03695	2428.927		-37.98572	
43.0909	2426.973		-37.9729	
43.14485	2424.987		-37.95829	
43.1988	2422.972		-37.94176	
43.25275	2420.94		-37.92325	
43.30669	2418.896		-37.90277	
43.36064	2416.841		-37.88038	
43.41459	2414.774		-37.8562	
43.46854	2412.689		-37.83039	
43.52248	2410.584		-37.80314	
43.57643	2408.454		-37.77468	
43.63038	2406.305		-37.74525	
43.68433	2404.144		-37.71515	
43.73828	2401.973		-37.68465	
43.79222	2399.793		-37.65404	
43.84617	2397.607		-37.6236	
43.90012	2395.421		-37.59357	
43.95407	2393.243		-37.56419	
44.00802	2391.078		-37.53563	
44.06197	2388.928		-37.50806	
44.11591	2386.79		-37.48165	
44.16986	2384.657		-37.45651	
44.22381	2382.527		-37.43272	
44.27776	2380.406		-37.41032	
44.33171	2378.296		-37.38923	
44.38565	2376.196		-37.36938	
44.4396	2374.101		-37.35061	
44.49355	2372.012		-37.33269	
44.5475	2369.932		-37.3154	
44.60144	2367.854		-37.2985	
44.65539	2365.772		-37.28176	
44.70934	2363.681		-37.26497	
44.76329	2361.587		-37.24797	
44.81724	2359.504		-37.23061	
44.87119	2357.447		-37.21278	
44.92513	2355.426		-37.19441	
44.97908	2353.44		-37.1754	
45.03303	2351.483		-37.15569	
45.08698	2349.551		-37.13523	
45.14093	2347.638		-37.11395	
45.19487	2345.741		-37.09183	
45.24882	2343.857		-37.06889	
45.30277	2341.986		-37.04519	
45.35672	2340.127		-37.02082	
45.41066	2338.27		-36.99593	
45.46461	2336.407		-36.97064	
45.51856	2334.534		-36.94513	
45.57251	2332.646		-36.9196	
45.62646	2330.749		-36.89424	
45.6804	2328.858		-36.86926	
45.73435	2326.983		-36.8449	
45.7883	2325.127		-36.8214	
45.84225	2323.286		-36.79898	
45.8962	2321.46		-36.77788	
45.95015	2319.646		-36.75831	
46.00409	2317.837		-36.74046	
46.05804	2316.027		-36.72452	
46.11199	2314.202		-36.71065	
46.16594	2312.345		-36.69898	
46.21989	2310.443		-36.68957	
46.27383	2308.488		-36.68239	
46.32778	2306.477		-36.67728	
46.38173	2304.416		-36.674	
46.43568	2302.318		-36.67221	
46.48962	2300.202		-36.67151	
46.54358	2298.091		-36.67142	
46.59752	2295.997		-36.67148	
46.65147	2293.916		-36.67118	
46.70542	2291.84		-36.67005	
46.75937	2289.764		-36.66761	
46.81331	2287.69		-36.66344	
46.86726	2285.623		-36.65714	
46.92121	2283.571		-36.64833	
46.97516	2281.534		-36.63664	
47.02911	2279.507		-36.62174	
47.08305	2277.486		-36.60334	
47.137	2275.461		-36.5812	
47.19095	2273.426		-36.5551	
47.2449	2271.38		-36.52493	
47.29885	2269.328		-36.49062	
47.35279	2267.274		-36.4522	
47.40674	2265.221		-36.40973	
47.46069	2263.175		-36.36335	
47.51464	2261.142		-36.31322	
47.56858	2259.124		-36.25953	
47.62254	2257.127		-36.20254	
47.67648	2255.158		-36.14255	
47.73043	2253.211		-36.07986	
47.78438	2251.279		-36.01482	
47.83833	2249.35		-35.94781	
47.89227	2247.416		-35.87925	
47.94622	2245.461		-35.80955	
48.00017	2243.483		-35.73923	
48.05412	2241.479		-35.66883	
48.10807	2239.448		-35.59891	
48.16201	2237.395		-35.53006	
48.21596	2235.331		-35.46286	
48.26991	2233.269		-35.39782	
48.32386	2231.217		-35.33539	
48.37781	2229.173		-35.27591	
48.43176	2227.138		-35.21965	
48.4857	2225.116		-35.16682	
48.53965	2223.114		-35.11758	
48.5936	2221.138		-35.072	
48.64754	2219.19		-35.0301	
48.7015	2217.278		-34.99182	
48.75544	2215.406		-34.9571	
48.80939	2213.575		-34.92581	
48.86334	2211.791		-34.89779	
48.91729	2210.059		-34.87287	
48.97123	2208.375		-34.85086	
49.02518	2206.732		-34.83155	
49.07913	2205.119		-34.81476	
49.13308	2203.528		-34.80032	
49.18703	2201.951		-34.78802	
49.24097	2200.384		-34.77774	
49.29492	2198.82		-34.76934	
49.34887	2197.252		-34.76275	
49.40282	2195.673		-34.75795	
49.45677	2194.079		-34.75488	
49.51072	2192.463		-34.7535	
49.56466	2190.823		-34.75377	
49.61861	2189.158		-34.75563	
49.67256	2187.463		-34.75899	
49.72651	2185.736		-34.76377	
49.78046	2183.978		-34.76984	
49.8344	2182.19		-34.77705	
49.88835	2180.371		-34.78527	
49.9423	2178.515		-34.79434	
49.99625	2176.62		-34.80411	
50.05019	2174.686		-34.81446	
50.10414	2172.708		-34.82528	
50.15809	2170.683		-34.83647	
50.21204	2168.612		-34.84795	
50.26599	2166.507		-34.85964	
50.31993	2164.385		-34.87148	
50.37388	2162.262		-34.88337	
50.42783	2160.154		-34.89522	
50.48178	2158.073		-34.90686	
50.53573	2156.02		-34.91811	
50.58968	2153.994		-34.92875	
50.64362	2151.988		-34.93852	
50.69757	2149.993		-34.94715	
50.75152	2148.003		-34.95433	
50.80547	2146.01		-34.95979	
50.85941	2144.02		-34.96321	
50.91336	2142.04		-34.9643	
50.96731	2140.083		-34.96275	
51.02126	2138.152		-34.95832	
51.07521	2136.24		-34.95079	
51.12915	2134.339		-34.93999	
51.1831	2132.44		-34.92583	
51.23705	2130.531		-34.90826	
51.291	2128.604		-34.88734	
51.34495	2126.647		-34.86318	
51.3989	2124.661		-34.83595	
51.45284	2122.649		-34.80585	
51.50679	2120.623		-34.77312	
51.56074	2118.598		-34.73798	
51.61469	2116.579		-34.70071	
51.66864	2114.572		-34.66156	
51.72258	2112.583		-34.62078	
51.77653	2110.62		-34.57865	
51.83048	2108.69		-34.5354	
51.88443	2106.792		-34.49123	
51.93837	2104.927		-34.44635	
51.99232	2103.091		-34.40089	
52.04627	2101.288		-34.35502	
52.10022	2099.512		-34.30886	
52.15417	2097.752		-34.26257	
52.20811	2096.002		-34.21632	
52.26206	2094.259		-34.17028	
52.31601	2092.52		-34.12471	
52.36996	2090.789		-34.07984	
52.42391	2089.073		-34.03593	
52.47786	2087.375		-33.9932	
52.5318	2085.698		-33.9519	
52.58575	2084.043		-33.91223	
52.6397	2082.412		-33.87443	
52.69365	2080.805		-33.83868	
52.7476	2079.211		-33.8052	
52.80154	2077.615		-33.77417	
52.85549	2076.002		-33.74571	
52.90944	2074.362		-33.71993	
52.96339	2072.687		-33.69687	
53.01733	2070.98		-33.67654	
53.07129	2069.251		-33.65893	
53.12523	2067.505		-33.644	
53.17918	2065.74		-33.63174	
53.23313	2063.958		-33.62211	
53.28708	2062.161		-33.61511	
53.34102	2060.347		-33.61074	
53.39497	2058.513		-33.60902	
53.44892	2056.661		-33.60992	
53.50287	2054.795		-33.61342	
53.55682	2052.917		-33.61943	
53.61076	2051.025		-33.62783	
53.66471	2049.122		-33.63848	
53.71866	2047.208		-33.6512	
53.77261	2045.284		-33.66573	
53.82656	2043.355		-33.68179	
53.8805	2041.423		-33.69902	
53.93445	2039.491		-33.71703	
53.9884	2037.566		-33.73536	
54.04235	2035.656		-33.75352	
54.09629	2033.756		-33.77102	
54.15025	2031.863		-33.78737	
54.20419	2029.973		-33.80207	
54.25814	2028.085		-33.81466	
54.31209	2026.199		-33.8247	
54.36604	2024.32		-33.83179	
54.41998	2022.453		-33.83561	
54.47393	2020.607		-33.83583	
54.52788	2018.784		-33.83223	
54.58183	2016.988		-33.82462	
54.63578	2015.217		-33.81288	
54.68972	2013.466		-33.79694	
54.74367	2011.721		-33.7768	
54.79762	2009.972		-33.75249	
54.85157	2008.206		-33.72415	
54.90552	2006.408		-33.69191	
54.95947	2004.575		-33.65598	
55.01341	2002.712		-33.61658	
55.06736	2000.825		-33.57398	
55.12131	1998.923		-33.52845	
55.17525	1997.01		-33.48031	
55.22921	1995.094		-33.42989	
55.28315	1993.178		-33.37754	
55.3371	1991.266		-33.32361	
55.39105	1989.362		-33.26846	
55.445	1987.471		-33.21247	
55.49894	1985.593		-33.15601	
55.55289	1983.726		-33.09948	
55.60684	1981.869		-33.04322	
55.66079	1980.019		-32.98758	
55.71474	1978.179		-32.93283	
55.76868	1976.347		-32.87925	
55.82263	1974.523		-32.82707	
55.87658	1972.705		-32.77653	
55.93053	1970.896		-32.72782	
55.98448	1969.106		-32.68113	
56.03843	1967.348		-32.63662	
56.09237	1965.63		-32.59445	
56.14632	1963.957		-32.55472	
