T[Â°C]	350nm [counts / mm]	S.D.	First derivative	S.D. of first derivative
20.00043	2780.053		-40.79638	
20.05438	2778.164		-40.76973	
20.10833	2776.27		-40.74237	
20.16228	2774.371		-40.71431	
20.21623	2772.466		-40.68551	
20.27018	2770.557		-40.65598	
20.32413	2768.642		-40.62569	
20.37808	2766.721		-40.59465	
20.43203	2764.795		-40.56284	
20.48598	2762.865		-40.53027	
20.53993	2760.929		-40.49694	
20.59388	2758.99		-40.46284	
20.64783	2757.045		-40.428	
20.70178	2755.095		-40.3924	
20.75573	2753.14		-40.35607	
20.80968	2751.177		-40.31903	
20.86363	2749.207		-40.28128	
20.91758	2747.222		-40.24285	
20.97153	2745.208		-40.20376	
21.02547	2743.039		-40.16405	
21.07942	2740.836		-40.12373	
21.13337	2738.598		-40.08286	
21.18732	2736.327		-40.04145	
21.24127	2734.031		-39.99954	
21.29522	2731.72		-39.95718	
21.34917	2729.406		-39.9144	
21.40312	2727.1		-39.87124	
21.45707	2724.808		-39.82775	
21.51102	2722.527		-39.78396	
21.56497	2720.251		-39.73993	
21.61892	2717.983		-39.69569	
21.67287	2715.728		-39.6513	
21.72682	2713.484		-39.6068	
21.78077	2711.25		-39.56224	
21.83472	2709.027		-39.51768	
21.88867	2706.818		-39.47315	
21.94262	2704.625		-39.42872	
21.99657	2702.449		-39.38442	
22.05052	2700.294		-39.34029	
22.10447	2698.164		-39.29636	
22.15842	2696.054		-39.25266	
22.21237	2693.956		-39.20914	
22.26632	2691.861		-39.16573	
22.32026	2689.765		-39.12225	
22.37421	2687.664		-39.07835	
22.42816	2685.55		-39.03345	
22.48211	2683.419		-38.98668	
22.53606	2681.266		-38.93682	
22.59001	2679.089		-38.88261	
22.64396	2676.89		-38.82651	
22.69791	2674.673		-38.77251	
22.75186	2672.446		-38.72078	
22.80581	2670.221		-38.67142	
22.85976	2668.008		-38.6245	
22.91371	2665.816		-38.58003	
22.96766	2663.646		-38.53799	
23.02161	2661.5		-38.4983	
23.07556	2659.381		-38.46083	
23.12951	2657.292		-38.42543	
23.18346	2655.237		-38.39196	
23.23741	2653.219		-38.36028	
23.29136	2651.237		-38.33027	
23.34531	2649.286		-38.30182	
23.39926	2647.366		-38.27487	
23.45321	2645.481		-38.24936	
23.50716	2643.631		-38.22526	
23.56111	2641.816		-38.20259	
23.61506	2640.036		-38.18135	
23.669	2638.289		-38.16159	
23.72295	2636.564		-38.14334	
23.7769	2634.846		-38.12663	
23.83085	2633.111		-38.11147	
23.8848	2631.339		-38.09787	
23.93875	2629.518		-38.08578	
23.9927	2627.642		-38.07518	
24.04665	2625.712		-38.06601	
24.1006	2623.731		-38.05824	
24.15455	2621.705		-38.05187	
24.2085	2619.643		-38.04689	
24.26245	2617.553		-38.04332	
24.3164	2615.445		-38.04115	
24.37035	2613.333		-38.0404	
24.4243	2611.221		-38.0411	
24.47825	2609.107		-38.0433	
24.5322	2606.985		-38.04707	
24.58615	2604.848		-38.05247	
24.6401	2602.689		-38.05956	
24.69405	2600.504		-38.06834	
24.748	2598.291		-38.07879	
24.80194	2596.054		-38.09081	
24.8559	2593.803		-38.10428	
24.90985	2591.55		-38.11903	
24.96379	2589.305		-38.13486	
25.01774	2587.075		-38.15149	
25.07169	2584.864		-38.16865	
25.12564	2582.677		-38.18598	
25.17959	2580.523		-38.20315	
25.23354	2578.406		-38.2198	
25.28749	2576.323		-38.23557	
25.34144	2574.27		-38.25011	
25.39539	2572.235		-38.26307	
25.44934	2570.205		-38.27406	
25.50329	2568.165		-38.28277	
25.55724	2566.111		-38.28888	
25.61119	2564.043		-38.29216	
25.66514	2561.962		-38.29243	
25.71909	2559.867		-38.28959	
25.77304	2557.758		-38.2836	
25.82699	2555.636		-38.27444	
25.88094	2553.505		-38.26218	
25.93489	2551.376		-38.24688	
25.98884	2549.261		-38.22867	
26.04279	2547.17		-38.20771	
26.09674	2545.105		-38.18418	
26.15068	2543.061		-38.15828	
26.20463	2541.029		-38.13019	
26.25858	2538.998		-38.10014	
26.31253	2536.958		-38.06834	
26.36648	2534.91		-38.03506	
26.42043	2532.862		-38.00059	
26.47438	2530.826		-37.96527	
26.52833	2528.807		-37.92946	
26.58228	2526.808		-37.89353	
26.63623	2524.822		-37.85786	
26.69018	2522.841		-37.82277	
26.74413	2520.86		-37.78862	
26.79808	2518.875		-37.75568	
26.85203	2516.886		-37.72423	
26.90598	2514.893		-37.69453	
26.95993	2512.897		-37.66678	
27.01388	2510.898		-37.64115	
27.06783	2508.9		-37.61776	
27.12178	2506.901		-37.59666	
27.17573	2504.902		-37.57788	
27.22968	2502.903		-37.56136	
27.28363	2500.909		-37.54702	
27.33758	2498.925		-37.53477	
27.39153	2496.95		-37.52445	
27.44547	2494.978		-37.51591	
27.49942	2493.004		-37.50898	
27.55337	2491.027		-37.50348	
27.60732	2489.048		-37.49926	
27.66127	2487.068		-37.49617	
27.71522	2485.09		-37.49414	
27.76917	2483.109		-37.49305	
27.82312	2481.117		-37.49284	
27.87707	2479.105		-37.49342	
27.93102	2477.072		-37.49469	
27.98497	2475.023		-37.49652	
28.03892	2472.964		-37.49881	
28.09287	2470.903		-37.50141	
28.14682	2468.845		-37.50418	
28.20077	2466.795		-37.50693	
28.25472	2464.756		-37.50945	
28.30867	2462.724		-37.51146	
28.36262	2460.697		-37.5127	
28.41657	2458.67		-37.51287	
28.47052	2456.647		-37.51173	
28.52447	2454.626		-37.50903	
28.57842	2452.605		-37.50455	
28.63237	2450.579		-37.49809	
28.68632	2448.545		-37.4895	
28.74026	2446.508		-37.47865	
28.79421	2444.47		-37.46545	
28.84816	2442.427		-37.44989	
28.90211	2440.375		-37.43198	
28.95606	2438.309		-37.41179	
29.01001	2436.23		-37.38941	
29.06396	2434.142		-37.36495	
29.11791	2432.053		-37.3385	
29.17186	2429.969		-37.31012	
29.22581	2427.896		-37.27987	
29.27976	2425.841		-37.2478	
29.33371	2423.809		-37.21398	
29.38766	2421.798		-37.17847	
29.44161	2419.802		-37.14136	
29.49556	2417.806		-37.10271	
29.54951	2415.798		-37.0626	
29.60346	2413.774		-37.02115	
29.65741	2411.732		-36.97849	
29.71136	2409.671		-36.9348	
29.76531	2407.596		-36.89025	
29.81926	2405.513		-36.84506	
29.87321	2403.427		-36.7994	
29.92716	2401.344		-36.75344	
29.98111	2399.276		-36.70732	
30.03506	2397.229		-36.66116	
30.089	2395.207		-36.61508	
30.14295	2393.205		-36.56923	
30.1969	2391.219		-36.52377	
30.25085	2389.243		-36.47879	
30.3048	2387.273		-36.43438	
30.35875	2385.307		-36.39061	
30.4127	2383.345		-36.34755	
30.46665	2381.394		-36.30527	
30.5206	2379.46		-36.26391	
30.57455	2377.545		-36.22361	
30.6285	2375.645		-36.18455	
30.68245	2373.756		-36.14698	
30.7364	2371.877		-36.11116	
30.79035	2370.008		-36.0774	
30.8443	2368.155		-36.04603	
30.89825	2366.324		-36.01738	
30.9522	2364.515		-35.99178	
31.00615	2362.717		-35.96956	
31.0601	2360.923		-35.95103	
31.11405	2359.122		-35.93642	
31.168	2357.302		-35.92591	
31.22194	2355.453		-35.91961	
31.2759	2353.575		-35.91759	
31.32985	2351.669		-35.91987	
31.38379	2349.745		-35.92638	
31.43774	2347.815		-35.93697	
31.49169	2345.886		-35.95148	
31.54564	2343.964		-35.96964	
31.59959	2342.048		-35.99119	
31.65354	2340.135		-36.01581	
31.70749	2338.229		-36.04319	
31.76144	2336.333		-36.07296	
31.81539	2334.44		-36.10476	
31.86934	2332.54		-36.13816	
31.92329	2330.622		-36.17271	
31.97724	2328.684		-36.20789	
32.03119	2326.73		-36.24313	
32.08514	2324.77		-36.27787	
32.13909	2322.809		-36.31156	
32.19304	2320.847		-36.34367	
32.24699	2318.885		-36.3737	
32.30094	2316.929		-36.40115	
32.35489	2314.982		-36.42556	
32.40884	2313.047		-36.44652	
32.46279	2311.128		-36.46362	
32.51674	2309.233		-36.47655	
32.57069	2307.368		-36.48507	
32.62463	2305.528		-36.48901	
32.67859	2303.693		-36.48832	
32.73253	2301.839		-36.483	
32.78648	2299.948		-36.47316	
32.84043	2298.017		-36.45897	
32.89438	2296.045		-36.44069	
32.94833	2294.031		-36.41866	
33.00228	2291.973		-36.39331	
33.05623	2289.875		-36.36513	
33.11018	2287.739		-36.33464	
33.16413	2285.568		-36.30238	
33.21808	2283.372		-36.26888	
33.27203	2281.155		-36.23464	
33.32598	2278.924		-36.20017	
33.37993	2276.688		-36.16587	
33.43388	2274.463		-36.13209	
33.48783	2272.259		-36.09912	
33.54178	2270.073		-36.06714	
33.59573	2267.897		-36.03627	
33.64968	2265.729		-36.00658	
33.70362	2263.577		-35.97808	
33.75758	2261.446		-35.95073	
33.81153	2259.334		-35.92448	
33.86547	2257.242		-35.89922	
33.91943	2255.171		-35.8748	
33.97337	2253.127		-35.85103	
34.02732	2251.121		-35.82768	
34.08127	2249.163		-35.8045	
34.13522	2247.261		-35.78122	
34.18917	2245.419		-35.7576	
34.24312	2243.63		-35.7334	
34.29707	2241.884		-35.70843	
34.35102	2240.171		-35.68246	
34.40497	2238.482		-35.6553	
34.45892	2236.813		-35.62675	
34.51287	2235.162		-35.59668	
34.56682	2233.537		-35.56499	
34.62077	2231.934		-35.53167	
34.67472	2230.341		-35.49673	
34.72867	2228.738		-35.4603	
34.78262	2227.111		-35.42251	
34.83657	2225.45		-35.38362	
34.89052	2223.75		-35.34395	
34.94447	2222.013		-35.30389	
34.99842	2220.246		-35.26394	
35.05236	2218.462		-35.22461	
35.10632	2216.666		-35.18649	
35.16026	2214.861		-35.15011	
35.21421	2213.041		-35.11601	
35.26817	2211.199		-35.08469	
35.32211	2209.331		-35.0566	
35.37606	2207.44		-35.03217	
35.43001	2205.529		-35.01174	
35.48396	2203.598		-34.99554	
35.53791	2201.638		-34.98373	
35.59186	2199.645		-34.97631	
35.64581	2197.617		-34.97321	
35.69976	2195.562		-34.97427	
35.75371	2193.488		-34.97921	
35.80766	2191.404		-34.98767	
35.86161	2189.316		-34.99922	
35.91556	2187.235		-35.01338	
35.96951	2185.168		-35.0296	
36.02346	2183.123		-35.04729	
36.07741	2181.104		-35.06583	
36.13136	2179.116		-35.0846	
36.18531	2177.159		-35.10295	
36.23926	2175.23		-35.1203	
36.29321	2173.322		-35.13604	
36.34716	2171.428		-35.1496	
36.4011	2169.537		-35.1604	
36.45506	2167.642		-35.16792	
36.509	2165.743		-35.17166	
36.56295	2163.843		-35.17123	
36.61691	2161.947		-35.16631	
36.67085	2160.063		-35.15665	
36.7248	2158.193		-35.14211	
36.77875	2156.335		-35.12264	
36.8327	2154.484		-35.09828	
36.88665	2152.639		-35.06918	
36.9406	2150.798		-35.0356	
36.99455	2148.962		-34.99791	
37.0485	2147.125		-34.95652	
37.10245	2145.277		-34.91192	
37.1564	2143.408		-34.86463	
37.21035	2141.503		-34.81514	
37.2643	2139.555		-34.76397	
37.31825	2137.563		-34.71164	
37.3722	2135.541		-34.65865	
37.42615	2133.504		-34.60551	
37.48009	2131.467		-34.55275	
37.53405	2129.444		-34.50083	
37.588	2127.448		-34.45024	
37.64194	2125.485		-34.40141	
37.6959	2123.557		-34.3547	
37.74984	2121.667		-34.31042	
37.80379	2119.811		-34.26882	
37.85774	2117.982		-34.2301	
37.91169	2116.174		-34.19441	
37.96564	2114.382		-34.1618	
38.01959	2112.6		-34.13225	
38.07354	2110.825		-34.10569	
38.12749	2109.057		-34.08196	
38.18144	2107.291		-34.06089	
38.23539	2105.527		-34.04228	
38.28934	2103.763		-34.02588	
38.34329	2102.004		-34.01142	
38.39724	2100.256		-33.99862	
38.45119	2098.526		-33.98715	
38.50514	2096.821		-33.97673	
38.55909	2095.145		-33.96705	
38.61304	2093.494		-33.95783	
38.66699	2091.86		-33.9488	
38.72094	2090.229		-33.93972	
38.77489	2088.587		-33.93036	
38.82883	2086.916		-33.92056	
38.88279	2085.204		-33.91018	
38.93674	2083.449		-33.89914	
38.99068	2081.658		-33.88743	
39.04464	2079.842		-33.87506	
39.09858	2078.01		-33.86211	
39.15253	2076.166		-33.84865	
39.20648	2074.315		-33.83479	
39.26043	2072.463		-33.8206	
39.31438	2070.612		-33.80619	
39.36833	2068.764		-33.79167	
39.42228	2066.917		-33.77715	
39.47623	2065.067		-33.76277	
39.53018	2063.206		-33.74868	
39.58413	2061.336		-33.735	
39.63808	2059.455		-33.72183	
39.69203	2057.564		-33.70926	
39.74598	2055.661		-33.69735	
39.79993	2053.748		-33.68613	
39.85388	2051.831		-33.67566	
39.90783	2049.917		-33.66602	
39.96178	2048.008		-33.65722	
40.01573	2046.104		-33.6493	
40.06968	2044.205		-33.64225	
40.12363	2042.309		-33.63605	
40.17757	2040.417		-33.63065	
40.23153	2038.525		-33.62601	
40.28548	2036.635		-33.62205	
40.33942	2034.747		-33.61867	
40.39338	2032.857		-33.61575	
40.44732	2030.958		-33.61311	
40.50127	2029.054		-33.61055	
40.55522	2027.151		-33.60783	
40.60917	2025.253		-33.60469	
40.66312	2023.365		-33.60083	
40.71707	2021.49		-33.59598	
40.77102	2019.629		-33.58988	
40.82497	2017.785		-33.58231	
40.87892	2015.957		-33.57314	
40.93287	2014.15		-33.56227	
40.98682	2012.368		-33.54968	
41.04077	2010.615		-33.53542	
41.09472	2008.887		-33.51961	
41.14867	2007.18		-33.50239	
41.20262	2005.49		-33.48396	
41.25657	2003.812		-33.4645	
41.31052	2002.139		-33.44422	
41.36447	2000.468		-33.42334	
41.41842	1998.797		-33.40211	
41.47237	1997.125		-33.3808	
41.52631	1995.452		-33.35965	
41.58027	1993.778		-33.33889	
41.63422	1992.102		-33.3187	
41.68816	1990.416		-33.29924	
41.74212	1988.716		-33.28061	
41.79606	1987		-33.26294	
41.85001	1985.271		-33.2463	
41.90396	1983.528		-33.2308	
41.95791	1981.773		-33.21645	
42.01186	1980.003		-33.20329	
42.06581	1978.221		-33.19133	
42.11976	1976.423		-33.18055	
42.17371	1974.608		-33.17099	
42.22766	1972.774		-33.16266	
42.28161	1970.924		-33.15559	
42.33556	1969.06		-33.14978	
42.38951	1967.184		-33.14521	
42.44346	1965.299		-33.14182	
42.49741	1963.41		-33.1395	
42.55136	1961.529		-33.13801	
42.60531	1959.664		-33.13708	
42.65926	1957.82		-33.13633	
42.71321	1955.995		-33.13536	
42.76715	1954.184		-33.13371	
42.82111	1952.378		-33.13092	
42.87505	1950.571		-33.12649	
42.929	1948.761		-33.11993	
42.98295	1946.949		-33.11076	
43.0369	1945.14		-33.09858	
43.09085	1943.341		-33.083	
43.1448	1941.56		-33.06373	
43.19875	1939.799		-33.0405	
43.2527	1938.054		-33.01311	
43.30665	1936.32		-32.98143	
43.3606	1934.585		-32.94539	
43.41455	1932.842		-32.90501	
43.4685	1931.083		-32.86039	
43.52245	1929.303		-32.81171	
43.5764	1927.501		-32.75923	
43.63035	1925.671		-32.70324	
43.6843	1923.811		-32.64405	
43.73825	1921.928		-32.58206	
43.7922	1920.04		-32.51765	
43.84615	1918.164		-32.45126	
43.9001	1916.312		-32.3833	
43.95405	1914.481		-32.3142	
44.008	1912.665		-32.24438	
44.06195	1910.856		-32.17426	
44.11589	1909.049		-32.10427	
44.16985	1907.246		-32.03485	
44.22379	1905.446		-31.96646	
44.27774	1903.647		-31.89955	
44.33169	1901.846		-31.83458	
44.38564	1900.042		-31.772	
44.43959	1898.237		-31.71224	
44.49354	1896.438		-31.65573	
44.54749	1894.657		-31.60286	
44.60144	1892.906		-31.554	
44.65539	1891.193		-31.50948	
44.70934	1889.518		-31.46957	
44.76329	1887.874		-31.43447	
44.81724	1886.258		-31.40429	
44.87119	1884.665		-31.37905	
44.92514	1883.087		-31.35869	
44.97909	1881.514		-31.34303	
45.03304	1879.94		-31.33187	
45.08699	1878.362		-31.32495	
45.14094	1876.78		-31.32194	
45.19489	1875.197		-31.32249	
45.24884	1873.616		-31.32624	
45.30278	1872.04		-31.33284	
45.35674	1870.474		-31.34194	
45.41069	1868.922		-31.35323	
45.46463	1867.396		-31.36645	
45.51859	1865.9		-31.38137	
45.57253	1864.426		-31.3978	
45.62648	1862.958		-31.41558	
45.68043	1861.483		-31.43456	
45.73438	1859.991		-31.4546	
45.78833	1858.475		-31.47557	
45.84228	1856.937		-31.49732	
45.89623	1855.377		-31.51971	
45.95018	1853.799		-31.54258	
46.00413	1852.206		-31.56575	
46.05808	1850.6		-31.58907	
46.11203	1848.982		-31.61237	
46.16598	1847.353		-31.63546	
46.21993	1845.714		-31.65817	
46.27388	1844.058		-31.68029	
46.32783	1842.379		-31.70162	
46.38178	1840.668		-31.72199	
46.43573	1838.915		-31.74121	
46.48968	1837.117		-31.7591	
46.54362	1835.279		-31.7755	
46.59758	1833.411		-31.79027	
46.65152	1831.521		-31.80328	
46.70547	1829.61		-31.81442	
46.75943	1827.684		-31.8236	
46.81337	1825.749		-31.83066	
46.86732	1823.817		-31.83547	
46.92127	1821.891		-31.83788	
46.97522	1819.97		-31.83778	
47.02917	1818.053		-31.83502	
47.08312	1816.139		-31.82951	
47.13707	1814.226		-31.8211	
47.19102	1812.315		-31.8096	
47.24497	1810.409		-31.79482	
47.29892	1808.513		-31.77657	
47.35287	1806.627		-31.75469	
47.40682	1804.759		-31.72906	
47.46077	1802.913		-31.69958	
47.51472	1801.092		-31.66626	
47.56867	1799.293		-31.62911	
47.62262	1797.51		-31.58825	
47.67657	1795.744		-31.54382	
47.73052	1793.995		-31.49601	
47.78447	1792.263		-31.44506	
47.83842	1790.537		-31.39123	
47.89236	1788.81		-31.33483	
47.94632	1787.083		-31.27617	
48.00026	1785.361		-31.21561	
48.05421	1783.649		-31.15353	
48.10817	1781.954		-31.09031	
48.16211	1780.283		-31.02637	
48.21606	1778.642		-30.96213	
48.27001	1777.031		-30.89804	
48.32396	1775.449		-30.83457	
48.37791	1773.891		-30.77223	
48.43186	1772.356		-30.71151	
48.48581	1770.845		-30.65287	
48.53976	1769.354		-30.59676	
48.59371	1767.875		-30.54358	
48.64766	1766.395		-30.49368	
48.70161	1764.903		-30.44738	
48.75556	1763.396		-30.40491	
48.80951	1761.878		-30.36647	
48.86346	1760.356		-30.3322	
48.91741	1758.835		-30.30217	
48.97136	1757.317		-30.27645	
49.02531	1755.804		-30.25505	
49.07926	1754.297		-30.23792	
49.13321	1752.794		-30.22497	
49.18716	1751.293		-30.21604	
49.2411	1749.79		-30.2109	
49.29506	1748.281		-30.20929	
49.349	1746.766		-30.21087	
49.40295	1745.247		-30.21528	
49.45691	1743.727		-30.22213	
49.51085	1742.205		-30.23096	
49.5648	1740.673		-30.2413	
49.61875	1739.123		-30.25265	
49.6727	1737.558		-30.2645	
49.72665	1735.986		-30.27633	
49.7806	1734.41		-30.28765	
49.83455	1732.828		-30.29799	
49.8885	1731.234		-30.30691	
49.94245	1729.628		-30.31402	
49.9964	1728.004		-30.31893	
50.05035	1726.357		-30.32131	
50.1043	1724.685		-30.32081	
50.15825	1722.991		-30.31715	
50.2122	1721.277		-30.31009	
50.26615	1719.549		-30.29944	
50.3201	1717.807		-30.28509	
50.37405	1716.053		-30.26695	
50.428	1714.29		-30.24501	
50.48195	1712.518		-30.21933	
50.5359	1710.741		-30.18998	
50.58984	1708.958		-30.15711	
50.6438	1707.166		-30.12087	
50.69774	1705.365		-30.08145	
50.75169	1703.549		-30.03905	
50.80564	1701.722		-29.99389	
50.85959	1699.885		-29.94617	
50.91354	1698.04		-29.89612	
50.96749	1696.185		-29.84397	
51.02144	1694.325		-29.78995	
51.07539	1692.47		-29.7343	
51.12934	1690.629		-29.67724	
51.18329	1688.811		-29.61901	
51.23724	1687.022		-29.55986	
51.29119	1685.264		-29.50008	
51.34514	1683.541		-29.43998	
51.39909	1681.858		-29.37989	
51.45304	1680.218		-29.32013	
51.50699	1678.619		-29.261	
51.56094	1677.054		-29.20281	
51.61489	1675.514		-29.14586	
51.66883	1673.991		-29.0904	
51.72279	1672.481		-29.0367	
51.77674	1670.98		-28.98497	
51.83068	1669.487		-28.93543	
51.88464	1668.008		-28.88827	
51.93858	1666.551		-28.84365	
51.99253	1665.123		-28.80171	
52.04648	1663.73		-28.76255	
52.10043	1662.372		-28.72623	
52.15438	1661.046		-28.69278	
52.20833	1659.747		-28.6622	
52.26228	1658.474		-28.63452	
52.31623	1657.219		-28.60968	
52.37018	1655.973		-28.58764	
52.42413	1654.723		-28.56831	
52.47808	1653.456		-28.55161	
52.53203	1652.164		-28.53745	
52.58598	1650.844		-28.52571	
52.63993	1649.496		-28.51629	
52.69388	1648.122		-28.50912	
52.74783	1646.728		-28.50413	
52.80178	1645.321		-28.50126	
52.85573	1643.902		-28.50047	
52.90968	1642.476		-28.5017	
52.96363	1641.043		-28.50489	
53.01757	1639.604		-28.50997	
53.07153	1638.161		-28.51687	
53.12548	1636.714		-28.52548	
53.17942	1635.255		-28.53566	
53.23338	1633.779		-28.54725	
53.28732	1632.279		-28.5601	
53.34127	1630.75		-28.57403	
53.39522	1629.188		-28.58886	
53.44917	1627.596		-28.60441	
53.50312	1625.975		-28.62053	
53.55707	1624.327		-28.63707	
53.61102	1622.657		-28.65392	
53.66497	1620.972		-28.67099	
53.71892	1619.28		-28.68821	
53.77287	1617.581		-28.70554	
53.82682	1615.874		-28.72294	
53.88077	1614.152		-28.74042	
53.93472	1612.409		-28.75795	
53.98867	1610.641		-28.77554	
54.04262	1608.847		-28.79316	
54.09657	1607.028		-28.81075	
54.15052	1605.187		-28.82823	
54.20447	1603.337		-28.84552	
54.25842	1601.49		-28.86247	
54.31237	1599.66		-28.87893	
54.36631	1597.857		-28.89469	
54.42027	1596.088		-28.90952	
54.47421	1594.356		-28.92316	
54.52816	1592.66		-28.93535	
54.58212	1590.998		-28.94578	
54.63606	1589.366		-28.95415	
54.69001	1587.759		-28.96015	
54.74396	1586.176		-28.9635	
54.79791	1584.617		-28.9639	
54.85186	1583.079		-28.96109	
54.90581	1581.566		-28.95486	
54.95976	1580.075		-28.94499	
55.01371	1578.607		-28.9313	
55.06766	1577.162		-28.91368	
55.12161	1575.745		-28.89202	
55.17556	1574.359		-28.86625	
55.22951	1573.005		-28.83632	
55.28346	1571.674		-28.80223	
55.33741	1570.359		-28.76398	
55.39136	1569.052		-28.72163	
55.44531	1567.747		-28.67525	
55.49926	1566.434		-28.62498	
55.55321	1565.101		-28.57096	
55.60715	1563.739		-28.51342	
55.66111	1562.344		-28.45265	
55.71505	1560.918		-28.38898	
55.769	1559.466		-28.3228	
55.82295	1557.996		-28.25459	
55.8769	1556.517		-28.18483	
55.93085	1555.035		-28.11411	
55.9848	1553.554		-28.04301	
56.03875	1552.073		-27.97212	
56.0927	1550.59		-27.90205	
56.14665	1549.1		-27.83335	
56.2006	1547.6		-27.76661	
