T[Â°C]	330nm [counts / mm]	S.D.	First derivative	S.D. of first derivative
20.00043	3173.104		-46.42071	
20.05438	3170.667		-46.34336	
20.10833	3168.23		-46.26579	
20.16228	3165.793		-46.18801	
20.21623	3163.355		-46.11	
20.27018	3160.917		-46.03177	
20.32413	3158.478		-45.95333	
20.37808	3156.038		-45.87468	
20.43203	3153.597		-45.79581	
20.48598	3151.155		-45.71674	
20.53993	3148.714		-45.63747	
20.59388	3146.275		-45.558	
20.64783	3143.839		-45.47835	
20.70178	3141.407		-45.39852	
20.75573	3138.981		-45.31851	
20.80968	3136.559		-45.23834	
20.86363	3134.144		-45.15801	
20.91758	3131.735		-45.07753	
20.97153	3129.336		-44.9969	
21.02547	3126.895		-44.91613	
21.07942	3124.431		-44.83523	
21.13337	3121.948		-44.7542	
21.18732	3119.454		-44.67303	
21.24127	3116.956		-44.59175	
21.29522	3114.462		-44.51035	
21.34917	3111.985		-44.42883	
21.40312	3109.537		-44.34719	
21.45707	3107.127		-44.26545	
21.51102	3104.758		-44.1836	
21.56497	3102.419		-44.10165	
21.61892	3100.094		-44.01959	
21.67287	3097.763		-43.93742	
21.72682	3095.412		-43.85514	
21.78077	3093.04		-43.77274	
21.83472	3090.652		-43.69022	
21.88867	3088.259		-43.60756	
21.94262	3085.872		-43.52476	
21.99657	3083.497		-43.44179	
22.05052	3081.138		-43.35865	
22.10447	3078.806		-43.27532	
22.15842	3076.501		-43.19176	
22.21237	3074.217		-43.10794	
22.26632	3071.952		-43.02379	
22.32026	3069.7		-42.93922	
22.37421	3067.452		-42.85408	
22.42816	3065.191		-42.76815	
22.48211	3062.902		-42.68113	
22.53606	3060.577		-42.5927	
22.59001	3058.216		-42.50261	
22.64396	3055.828		-42.41775	
22.69791	3053.433		-42.33545	
22.75186	3051.051		-42.25602	
22.80581	3048.691		-42.17975	
22.85976	3046.356		-42.10681	
22.91371	3044.046		-42.03734	
22.96766	3041.757		-41.97142	
23.02161	3039.485		-41.90905	
23.07556	3037.22		-41.85019	
23.12951	3034.956		-41.79473	
23.18346	3032.688		-41.74253	
23.23741	3030.416		-41.69342	
23.29136	3028.134		-41.64722	
23.34531	3025.846		-41.60377	
23.39926	3023.566		-41.56289	
23.45321	3021.308		-41.5244	
23.50716	3019.085		-41.48814	
23.56111	3016.906		-41.45397	
23.61506	3014.776		-41.42178	
23.669	3012.697		-41.39151	
23.72295	3010.663		-41.36312	
23.7769	3008.658		-41.33659	
23.83085	3006.666		-41.31188	
23.8848	3004.666		-41.28896	
23.93875	3002.646		-41.26778	
23.9927	3000.601		-41.24832	
24.04665	2998.531		-41.23053	
24.1006	2996.44		-41.2144	
24.15455	2994.33		-41.19989	
24.2085	2992.198		-41.18698	
24.26245	2990.047		-41.1757	
24.3164	2987.883		-41.16609	
24.37035	2985.712		-41.15823	
24.4243	2983.535		-41.15221	
24.47825	2981.351		-41.14811	
24.5322	2979.159		-41.14599	
24.58615	2976.951		-41.14592	
24.6401	2974.721		-41.14795	
24.69405	2972.473		-41.1521	
24.748	2970.207		-41.15833	
24.80194	2967.922		-41.16656	
24.8559	2965.616		-41.17664	
24.90985	2963.288		-41.18839	
24.96379	2960.936		-41.2016	
25.01774	2958.567		-41.21603	
25.07169	2956.188		-41.23143	
25.12564	2953.812		-41.24752	
25.17959	2951.45		-41.26403	
25.23354	2949.101		-41.28063	
25.28749	2946.766		-41.29699	
25.34144	2944.453		-41.31278	
25.39539	2942.173		-41.32765	
25.44934	2939.929		-41.3413	
25.50329	2937.715		-41.35346	
25.55724	2935.527		-41.36389	
25.61119	2933.363		-41.37239	
25.66514	2931.219		-41.37886	
25.71909	2929.09		-41.38321	
25.77304	2926.967		-41.38543	
25.82699	2924.83		-41.38551	
25.88094	2922.66		-41.38352	
25.93489	2920.445		-41.37956	
25.98884	2918.19		-41.37377	
26.04279	2915.907		-41.36629	
26.09674	2913.611		-41.35728	
26.15068	2911.308		-41.34687	
26.20463	2909		-41.33519	
26.25858	2906.693		-41.32234	
26.31253	2904.395		-41.30844	
26.36648	2902.107		-41.29358	
26.42043	2899.829		-41.27788	
26.47438	2897.559		-41.26147	
26.52833	2895.293		-41.24451	
26.58228	2893.021		-41.2271	
26.63623	2890.737		-41.20934	
26.69018	2888.441		-41.19128	
26.74413	2886.139		-41.17295	
26.79808	2883.834		-41.15433	
26.85203	2881.533		-41.13542	
26.90598	2879.24		-41.11623	
26.95993	2876.962		-41.09673	
27.01388	2874.707		-41.07691	
27.06783	2872.484		-41.05676	
27.12178	2870.305		-41.03626	
27.17573	2868.169		-41.01541	
27.22968	2866.069		-40.99424	
27.28363	2863.996		-40.97277	
27.33758	2861.945		-40.95102	
27.39153	2859.907		-40.92902	
27.44547	2857.872		-40.90681	
27.49942	2855.829		-40.88441	
27.55337	2853.766		-40.86185	
27.60732	2851.679		-40.83918	
27.66127	2849.569		-40.81644	
27.71522	2847.439		-40.79374	
27.76917	2845.299		-40.77115	
27.82312	2843.151		-40.74883	
27.87707	2840.993		-40.72694	
27.93102	2838.82		-40.70564	
27.98497	2836.629		-40.6851	
28.03892	2834.418		-40.66543	
28.09287	2832.19		-40.64674	
28.14682	2829.946		-40.6291	
28.20077	2827.681		-40.61253	
28.25472	2825.392		-40.59698	
28.30867	2823.086		-40.58235	
28.36262	2820.771		-40.56848	
28.41657	2818.453		-40.55513	
28.47052	2816.14		-40.54207	
28.52447	2813.835		-40.52902	
28.57842	2811.539		-40.51569	
28.63237	2809.254		-40.50174	
28.68632	2806.988		-40.48677	
28.74026	2804.744		-40.47041	
28.79421	2802.524		-40.45228	
28.84816	2800.326		-40.43205	
28.90211	2798.152		-40.40941	
28.95606	2795.995		-40.38409	
29.01001	2793.854		-40.35583	
29.06396	2791.719		-40.32444	
29.11791	2789.588		-40.28976	
29.17186	2787.459		-40.25167	
29.22581	2785.34		-40.21015	
29.27976	2783.235		-40.16522	
29.33371	2781.146		-40.11694	
29.38766	2779.072		-40.06543	
29.44161	2777.006		-40.01085	
29.49556	2774.94		-39.95341	
29.54951	2772.87		-39.8934	
29.60346	2770.793		-39.83117	
29.65741	2768.702		-39.76714	
29.71136	2766.587		-39.70176	
29.76531	2764.439		-39.63553	
29.81926	2762.252		-39.56898	
29.87321	2760.022		-39.50265	
29.92716	2757.751		-39.4371	
29.98111	2755.444		-39.37286	
30.03506	2753.11		-39.31043	
30.089	2750.763		-39.25027	
30.14295	2748.421		-39.19282	
30.1969	2746.092		-39.13843	
30.25085	2743.781		-39.08737	
30.3048	2741.491		-39.0398	
30.35875	2739.229		-38.99576	
30.4127	2736.999		-38.95523	
30.46665	2734.809		-38.91813	
30.5206	2732.663		-38.88432	
30.57455	2730.56		-38.85367	
30.6285	2728.498		-38.82602	
30.68245	2726.473		-38.80122	
30.7364	2724.474		-38.77911	
30.79035	2722.5		-38.75956	
30.8443	2720.547		-38.74242	
30.89825	2718.617		-38.72755	
30.9522	2716.709		-38.71483	
31.00615	2714.823		-38.7041	
31.0601	2712.955		-38.6952	
31.11405	2711.104		-38.688	
31.168	2709.267		-38.68235	
31.22194	2707.439		-38.67813	
31.2759	2705.616		-38.67521	
31.32985	2703.787		-38.67348	
31.38379	2701.938		-38.67281	
31.43774	2700.055		-38.67311	
31.49169	2698.131		-38.67427	
31.54564	2696.165		-38.67624	
31.59959	2694.157		-38.67897	
31.65354	2692.109		-38.68249	
31.70749	2690.033		-38.68684	
31.76144	2687.938		-38.69206	
31.81539	2685.829		-38.69822	
31.86934	2683.71		-38.70539	
31.92329	2681.585		-38.71362	
31.97724	2679.455		-38.72293	
32.03119	2677.318		-38.73335	
32.08514	2675.179		-38.74485	
32.13909	2673.03		-38.75738	
32.19304	2670.866		-38.7708	
32.24699	2668.686		-38.78489	
32.30094	2666.492		-38.79934	
32.35489	2664.288		-38.81372	
32.40884	2662.078		-38.82763	
32.46279	2659.863		-38.8406	
32.51674	2657.645		-38.8522	
32.57069	2655.43		-38.86208	
32.62463	2653.223		-38.86992	
32.67859	2651.027		-38.87552	
32.73253	2648.849		-38.87875	
32.78648	2646.702		-38.87954	
32.84043	2644.594		-38.87786	
32.89438	2642.529		-38.87377	
32.94833	2640.499		-38.86733	
33.00228	2638.479		-38.85866	
33.05623	2636.445		-38.8479	
33.11018	2634.378		-38.83524	
33.16413	2632.264		-38.82087	
33.21808	2630.101		-38.80499	
33.27203	2627.885		-38.78778	
33.32598	2625.623		-38.76946	
33.37993	2623.329		-38.75023	
33.43388	2621.025		-38.73027	
33.48783	2618.735		-38.70978	
33.54178	2616.473		-38.68893	
33.59573	2614.247		-38.66788	
33.64968	2612.061		-38.64678	
33.70362	2609.911		-38.6258	
33.75758	2607.787		-38.60506	
33.81153	2605.677		-38.58468	
33.86547	2603.573		-38.56479	
33.91943	2601.465		-38.54543	
33.97337	2599.349		-38.52667	
34.02732	2597.231		-38.50851	
34.08127	2595.118		-38.49097	
34.13522	2593.013		-38.47403	
34.18917	2590.918		-38.45763	
34.24312	2588.841		-38.44169	
34.29707	2586.793		-38.42608	
34.35102	2584.79		-38.4106	
34.40497	2582.838		-38.39506	
34.45892	2580.945		-38.37921	
34.51287	2579.113		-38.36281	
34.56682	2577.338		-38.3456	
34.62077	2575.611		-38.32737	
34.67472	2573.907		-38.3079	
34.72867	2572.198		-38.28702	
34.78262	2570.46		-38.26463	
34.83657	2568.684		-38.24065	
34.89052	2566.865		-38.21507	
34.94447	2565.004		-38.18794	
34.99842	2563.096		-38.15934	
35.05236	2561.146		-38.12944	
35.10632	2559.157		-38.09841	
35.16026	2557.128		-38.06647	
35.21421	2555.056		-38.03385	
35.26817	2552.935		-38.00078	
35.32211	2550.766		-37.96752	
35.37606	2548.558		-37.93433	
35.43001	2546.326		-37.90146	
35.48396	2544.085		-37.86914	
35.53791	2541.844		-37.83755	
35.59186	2539.611		-37.80682	
35.64581	2537.386		-37.77702	
35.69976	2535.167		-37.74815	
35.75371	2532.957		-37.72016	
35.80766	2530.755		-37.69297	
35.86161	2528.558		-37.66641	
35.91556	2526.361		-37.64033	
35.96951	2524.161		-37.61449	
36.02346	2521.958		-37.58868	
36.07741	2519.756		-37.56264	
36.13136	2517.562		-37.53612	
36.18531	2515.384		-37.50888	
36.23926	2513.232		-37.48068	
36.29321	2511.116		-37.45133	
36.34716	2509.041		-37.42065	
36.4011	2507.005		-37.38846	
36.45506	2505.005		-37.3546	
36.509	2503.041		-37.31892	
36.56295	2501.109		-37.28124	
36.61691	2499.202		-37.24142	
36.67085	2497.301		-37.19933	
36.7248	2495.385		-37.15482	
36.77875	2493.441		-37.10784	
36.8327	2491.464		-37.05835	
36.88665	2489.459		-37.00637	
36.9406	2487.432		-36.95197	
36.99455	2485.395		-36.89525	
37.0485	2483.363		-36.8364	
37.10245	2481.349		-36.77568	
37.1564	2479.359		-36.71339	
37.21035	2477.397		-36.64988	
37.2643	2475.456		-36.58551	
37.31825	2473.527		-36.52069	
37.3722	2471.604		-36.45586	
37.42615	2469.688		-36.39147	
37.48009	2467.781		-36.32796	
37.53405	2465.884		-36.26574	
37.588	2463.996		-36.20517	
37.64194	2462.114		-36.14656	
37.6959	2460.241		-36.09017	
37.74984	2458.387		-36.0362	
37.80379	2456.557		-35.98485	
37.85774	2454.751		-35.93631	
37.91169	2452.961		-35.89074	
37.96564	2451.176		-35.84834	
38.01959	2449.379		-35.80923	
38.07354	2447.561		-35.77351	
38.12749	2445.717		-35.74123	
38.18144	2443.85		-35.71237	
38.23539	2441.963		-35.68689	
38.28934	2440.057		-35.66466	
38.34329	2438.131		-35.64553	
38.39724	2436.187		-35.62928	
38.45119	2434.233		-35.61566	
38.50514	2432.277		-35.60437	
38.55909	2430.328		-35.5951	
38.61304	2428.394		-35.58754	
38.66699	2426.477		-35.58137	
38.72094	2424.571		-35.57628	
38.77489	2422.668		-35.57198	
38.82883	2420.758		-35.56816	
38.88279	2418.829		-35.56457	
38.93674	2416.876		-35.56092	
38.99068	2414.901		-35.55698	
39.04464	2412.91		-35.55256	
39.09858	2410.915		-35.54749	
39.15253	2408.926		-35.54165	
39.20648	2406.948		-35.53492	
39.26043	2404.989		-35.52717	
39.31438	2403.049		-35.5183	
39.36833	2401.127		-35.50823	
39.42228	2399.224		-35.49689	
39.47623	2397.339		-35.48427	
39.53018	2395.467		-35.47036	
39.58413	2393.594		-35.45517	
39.63808	2391.705		-35.43869	
39.69203	2389.788		-35.42091	
39.74598	2387.839		-35.40184	
39.79993	2385.865		-35.38149	
39.85388	2383.888		-35.35998	
39.90783	2381.921		-35.33747	
39.96178	2379.969		-35.31422	
40.01573	2378.026		-35.29051	
40.06968	2376.088		-35.26668	
40.12363	2374.154		-35.24305	
40.17757	2372.224		-35.21997	
40.23153	2370.293		-35.19775	
40.28548	2368.361		-35.17667	
40.33942	2366.428		-35.15694	
40.39338	2364.49		-35.13867	
40.44732	2362.547		-35.12188	
40.50127	2360.593		-35.10648	
40.55522	2358.629		-35.09232	
40.60917	2356.657		-35.07919	
40.66312	2354.684		-35.06688	
40.71707	2352.717		-35.05513	
40.77102	2350.768		-35.04369	
40.82497	2348.846		-35.03234	
40.87892	2346.955		-35.02089	
40.93287	2345.094		-35.00917	
40.98682	2343.263		-34.99712	
41.04077	2341.461		-34.9847	
41.09472	2339.682		-34.97195	
41.14867	2337.917		-34.95892	
41.20262	2336.16		-34.94568	
41.25657	2334.406		-34.93231	
41.31052	2332.645		-34.91886	
41.36447	2330.875		-34.9054	
41.41842	2329.099		-34.89199	
41.47237	2327.321		-34.87874	
41.52631	2325.551		-34.86578	
41.58027	2323.791		-34.85325	
41.63422	2322.04		-34.84126	
41.68816	2320.288		-34.82991	
41.74212	2318.524		-34.81928	
41.79606	2316.747		-34.80944	
41.85001	2314.957		-34.80044	
41.90396	2313.159		-34.79239	
41.95791	2311.347		-34.78538	
42.01186	2309.506		-34.77951	
42.06581	2307.627		-34.77487	
42.11976	2305.705		-34.77148	
42.17371	2303.747		-34.76937	
42.22766	2301.764		-34.76854	
42.28161	2299.767		-34.76894	
42.33556	2297.76		-34.77052	
42.38951	2295.748		-34.77319	
42.44346	2293.729		-34.77675	
42.49741	2291.707		-34.78093	
42.55136	2289.681		-34.78535	
42.60531	2287.657		-34.7896	
42.65926	2285.643		-34.79319	
42.71321	2283.641		-34.79559	
42.76715	2281.653		-34.79626	
42.82111	2279.677		-34.79461	
42.87505	2277.713		-34.79008	
42.929	2275.767		-34.78211	
42.98295	2273.851		-34.7702	
43.0369	2271.975		-34.75392	
43.09085	2270.144		-34.73294	
43.1448	2268.356		-34.70707	
43.19875	2266.604		-34.6762	
43.2527	2264.879		-34.64034	
43.30665	2263.172		-34.59957	
43.3606	2261.468		-34.5541	
43.41455	2259.75		-34.50418	
43.4685	2258.007		-34.45011	
43.52245	2256.23		-34.3923	
43.5764	2254.415		-34.3312	
43.63035	2252.553		-34.2673	
43.6843	2250.644		-34.20114	
43.73825	2248.692		-34.13327	
43.7922	2246.712		-34.06422	
43.84615	2244.727		-33.99455	
43.9001	2242.761		-33.92477	
43.95405	2240.823		-33.85539	
44.008	2238.906		-33.78688	
44.06195	2236.992		-33.71965	
44.11589	2235.065		-33.65406	
44.16985	2233.117		-33.59041	
44.22379	2231.144		-33.52895	
44.27774	2229.147		-33.46988	
44.33169	2227.132		-33.41338	
44.38564	2225.11		-33.35961	
44.43959	2223.092		-33.30868	
44.49354	2221.087		-33.26067	
44.54749	2219.113		-33.21559	
44.60144	2217.19		-33.17345	
44.65539	2215.34		-33.13428	
44.70934	2213.577		-33.09809	
44.76329	2211.908		-33.06485	
44.81724	2210.328		-33.03445	
44.87119	2208.823		-33.0067	
44.92514	2207.369		-32.98133	
44.97909	2205.94		-32.95801	
45.03304	2204.513		-32.93635	
45.08699	2203.07		-32.91597	
45.14094	2201.591		-32.89651	
45.19489	2200.064		-32.87767	
45.24884	2198.487		-32.85921	
45.30278	2196.864		-32.84094	
45.35674	2195.205		-32.82275	
45.41069	2193.528		-32.80462	
45.46463	2191.856		-32.78661	
45.51859	2190.203		-32.76885	
45.57253	2188.574		-32.75155	
45.62648	2186.959		-32.73499	
45.68043	2185.338		-32.71949	
45.73438	2183.688		-32.70537	
45.78833	2181.992		-32.69297	
45.84228	2180.24		-32.68257	
45.89623	2178.434		-32.67439	
45.95018	2176.585		-32.6686	
46.00413	2174.706		-32.66531	
46.05808	2172.805		-32.66459	
46.11203	2170.894		-32.66645	
46.16598	2168.975		-32.67081	
46.21993	2167.054		-32.67759	
46.27388	2165.142		-32.68664	
46.32783	2163.253		-32.69781	
46.38178	2161.397		-32.71092	
46.43573	2159.577		-32.72574	
46.48968	2157.786		-32.74199	
46.54362	2156.016		-32.75936	
46.59758	2154.255		-32.77752	
46.65152	2152.488		-32.79613	
46.70547	2150.701		-32.8149	
46.75943	2148.896		-32.83348	
46.81337	2147.077		-32.85152	
46.86732	2145.256		-32.86863	
46.92127	2143.434		-32.88439	
46.97522	2141.615		-32.89837	
47.02917	2139.802		-32.91017	
47.08312	2137.997		-32.91939	
47.13707	2136.198		-32.92568	
47.19102	2134.4		-32.92873	
47.24497	2132.595		-32.92826	
47.29892	2130.778		-32.92406	
47.35287	2128.948		-32.91595	
47.40682	2127.11		-32.90385	
47.46077	2125.269		-32.88773	
47.51472	2123.432		-32.86765	
47.56867	2121.604		-32.84377	
47.62262	2119.79		-32.81631	
47.67657	2117.991		-32.78561	
47.73052	2116.204		-32.752	
47.78447	2114.424		-32.71592	
47.83842	2112.642		-32.67779	
47.89236	2110.856		-32.63811	
47.94632	2109.068		-32.59738	
48.00026	2107.281		-32.55613	
48.05421	2105.502		-32.51484	
48.10817	2103.739		-32.474	
48.16211	2101.99		-32.43401	
48.21606	2100.251		-32.39523	
48.27001	2098.518		-32.35804	
48.32396	2096.789		-32.32275	
48.37791	2095.069		-32.28971	
48.43186	2093.362		-32.25926	
48.48581	2091.673		-32.23167	
48.53976	2090.002		-32.20715	
48.59371	2088.344		-32.18586	
48.64766	2086.694		-32.16785	
48.70161	2085.047		-32.15307	
48.75556	2083.394		-32.14143	
48.80951	2081.724		-32.13276	
48.86346	2080.029		-32.12684	
48.91741	2078.304		-32.12339	
48.97136	2076.553		-32.12208	
49.02531	2074.789		-32.12257	
49.07926	2073.024		-32.12448	
49.13321	2071.27		-32.12742	
49.18716	2069.532		-32.13099	
49.2411	2067.807		-32.13475	
49.29506	2066.094		-32.13832	
49.349	2064.394		-32.1413	
49.40295	2062.714		-32.14328	
49.45691	2061.056		-32.14388	
49.51085	2059.425		-32.14267	
49.5648	2057.816		-32.13924	
49.61875	2056.224		-32.13321	
49.6727	2054.64		-32.12415	
49.72665	2053.054		-32.11169	
49.7806	2051.457		-32.09552	
49.83455	2049.839		-32.07544	
49.8885	2048.194		-32.05132	
49.94245	2046.516		-32.02321	
49.9964	2044.808		-31.99122	
50.05035	2043.078		-31.95554	
50.1043	2041.334		-31.9164	
50.15825	2039.581		-31.87406	
50.2122	2037.82		-31.82879	
50.26615	2036.055		-31.78088	
50.3201	2034.286		-31.73065	
50.37405	2032.518		-31.67846	
50.428	2030.743		-31.62471	
50.48195	2028.951		-31.56981	
50.5359	2027.131		-31.51415	
50.58984	2025.274		-31.45807	
50.6438	2023.384		-31.40187	
50.69774	2021.465		-31.34585	
50.75169	2019.527		-31.29022	
50.80564	2017.579		-31.2352	
50.85959	2015.629		-31.18101	
50.91354	2013.679		-31.12781	
50.96749	2011.73		-31.07576	
51.02144	2009.785		-31.02493	
51.07539	2007.856		-30.97536	
51.12934	2005.957		-30.92705	
51.18329	2004.097		-30.87993	
51.23724	2002.283		-30.83389	
51.29119	2000.517		-30.7888	
51.34514	1998.8		-30.74449	
51.39909	1997.131		-30.70075	
51.45304	1995.509		-30.65742	
51.50699	1993.928		-30.61432	
51.56094	1992.383		-30.57126	
51.61489	1990.866		-30.52807	
51.66883	1989.369		-30.48461	
51.72279	1987.891		-30.44072	
51.77674	1986.432		-30.3963	
51.83068	1984.994		-30.35136	
51.88464	1983.575		-30.30595	
51.93858	1982.171		-30.26025	
51.99253	1980.784		-30.21448	
52.04648	1979.411		-30.16895	
52.10043	1978.049		-30.12397	
52.15438	1976.692		-30.07993	
52.20833	1975.337		-30.03719	
52.26228	1973.981		-29.99611	
52.31623	1972.622		-29.95705	
52.37018	1971.251		-29.92037	
52.42413	1969.851		-29.88637	
52.47808	1968.407		-29.85536	
52.53203	1966.907		-29.82757	
52.58598	1965.34		-29.8032	
52.63993	1963.711		-29.7824	
52.69388	1962.029		-29.76527	
52.74783	1960.313		-29.75187	
52.80178	1958.588		-29.74223	
52.85573	1956.871		-29.73633	
52.90968	1955.168		-29.7341	
52.96363	1953.479		-29.73543	
53.01757	1951.807		-29.74015	
53.07153	1950.155		-29.74802	
53.12548	1948.525		-29.75875	
53.17942	1946.91		-29.77204	
53.23338	1945.301		-29.78747	
53.28732	1943.688		-29.80462	
53.34127	1942.062		-29.82294	
53.39522	1940.417		-29.84189	
53.44917	1938.754		-29.86084	
53.50312	1937.077		-29.87919	
53.55707	1935.395		-29.89637	
53.61102	1933.717		-29.91186	
53.66497	1932.052		-29.92518	
53.71892	1930.405		-29.93595	
53.77287	1928.783		-29.94384	
53.82682	1927.186		-29.94865	
53.88077	1925.614		-29.95023	
53.93472	1924.053		-29.94855	
53.98867	1922.488		-29.94363	
54.04262	1920.898		-29.93556	
54.09657	1919.268		-29.92449	
54.15052	1917.588		-29.91062	
54.20447	1915.859		-29.89419	
54.25842	1914.093		-29.87547	
54.31237	1912.301		-29.85474	
54.36631	1910.498		-29.83228	
54.42027	1908.696		-29.80839	
54.47421	1906.904		-29.78337	
54.52816	1905.129		-29.7575	
54.58212	1903.371		-29.73106	
54.63606	1901.626		-29.70432	
54.69001	1899.891		-29.67753	
54.74396	1898.171		-29.65089	
54.79791	1896.475		-29.62456	
54.85186	1894.808		-29.59866	
54.90581	1893.167		-29.57324	
54.95976	1891.547		-29.54829	
55.01371	1889.942		-29.52375	
55.06766	1888.351		-29.49953	
55.12161	1886.778		-29.47552	
55.17556	1885.227		-29.45161	
55.22951	1883.701		-29.42766	
55.28346	1882.202		-29.40353	
55.33741	1880.735		-29.37907	
55.39136	1879.305		-29.35408	
55.44531	1877.909		-29.32834	
55.49926	1876.538		-29.30163	
55.55321	1875.181		-29.27375	
55.60715	1873.827		-29.24455	
55.66111	1872.465		-29.21391	
55.71505	1871.087		-29.18176	
55.769	1869.685		-29.14807	
55.82295	1868.263		-29.11286	
55.8769	1866.823		-29.07622	
55.93085	1865.373		-29.03827	
55.9848	1863.92		-28.99919	
56.03875	1862.467		-28.95917	
56.0927	1861.005		-28.91846	
