T[Â°C]	350nm [counts / mm]	S.D.	First derivative	S.D. of first derivative
20.00037	4367.822		-58.63991	
20.05447	4364.494		-58.71319	
20.10858	4361.179		-58.78601	
20.16269	4357.875		-58.85833	
20.21679	4354.581		-58.93012	
20.2709	4351.297		-59.00137	
20.325	4348.021		-59.07205	
20.37911	4344.753		-59.14212	
20.43322	4341.49		-59.21157	
20.48732	4338.232		-59.28037	
20.54143	4334.978		-59.34849	
20.59553	4331.726		-59.4159	
20.64964	4328.477		-59.48259	
20.70375	4325.231		-59.54853	
20.75785	4321.992		-59.6137	
20.81196	4318.763		-59.67807	
20.86606	4315.56		-59.74163	
20.92017	4312.414		-59.80436	
20.97428	4309.396		-59.86625	
21.02838	4306.385		-59.92728	
21.08249	4303.363		-59.98745	
21.13659	4300.309		-60.04674	
21.1907	4297.205		-60.10516	
21.24481	4294.04		-60.16271	
21.29891	4290.814		-60.21938	
21.35302	4287.534		-60.27519	
21.40712	4284.196		-60.33015	
21.46123	4280.808		-60.38426	
21.51534	4277.394		-60.43755	
21.56944	4273.977		-60.49003	
21.62355	4270.571		-60.54172	
21.67765	4267.187		-60.59266	
21.73176	4263.829		-60.64287	
21.78587	4260.49		-60.69241	
21.83997	4257.159		-60.74133	
21.89408	4253.822		-60.78968	
21.94818	4250.461		-60.83757	
22.00229	4247.067		-60.88507	
22.0564	4243.638		-60.9323	
22.1105	4240.177		-60.97939	
22.16461	4236.697		-61.02645	
22.21871	4233.208		-61.07363	
22.27282	4229.721		-61.12105	
22.32693	4226.245		-61.16878	
22.38103	4222.793		-61.2168	
22.43514	4219.381		-61.2649	
22.48924	4216.016		-61.31258	
22.54335	4212.698		-61.35895	
22.59746	4209.425		-61.40284	
22.65156	4206.188		-61.3875	
22.70567	4202.97		-61.36715	
22.75977	4199.75		-61.3422	
22.81388	4196.507		-61.3131	
22.86799	4193.225		-61.28035	
22.92209	4189.894		-61.24452	
22.9762	4186.509		-61.20616	
23.0303	4183.076		-61.16581	
23.08441	4179.601		-61.12406	
23.13852	4176.09		-61.08145	
23.19262	4172.563		-61.03858	
23.24673	4169.037		-60.99602	
23.30083	4165.534		-60.95436	
23.35494	4162.064		-60.91414	
23.40905	4158.629		-60.87585	
23.46315	4155.236		-60.8399	
23.51726	4151.89		-60.80661	
23.57136	4148.582		-60.7762	
23.62547	4145.294		-60.74879	
23.67957	4142.018		-60.72439	
23.73368	4138.736		-60.70296	
23.78779	4135.438		-60.68437	
23.84189	4132.117		-60.66845	
23.896	4128.774		-60.655	
23.95011	4125.42		-60.64375	
24.00421	4122.076		-60.63441	
24.05832	4118.764		-60.62673	
24.11242	4115.505		-60.62045	
24.16653	4112.315		-60.6154	
24.22064	4109.209		-60.61144	
24.27474	4106.189		-60.6085	
24.32885	4103.24		-60.60653	
24.38295	4100.344		-60.60548	
24.43706	4097.475		-60.60528	
24.49117	4094.613		-60.60583	
24.54527	4091.74		-60.60699	
24.59938	4088.843		-60.60864	
24.65348	4085.909		-60.61069	
24.70759	4082.921		-60.61308	
24.7617	4079.87		-60.61583	
24.8158	4076.755		-60.61899	
24.86991	4073.582		-60.62267	
24.92401	4070.362		-60.62705	
24.97812	4067.113		-60.63236	
25.03223	4063.851		-60.6389	
25.08633	4060.583		-60.64696	
25.14044	4057.31		-60.65688	
25.19454	4054.022		-60.66895	
25.24865	4050.712		-60.6834	
25.30276	4047.363		-60.70034	
25.35686	4043.953		-60.71974	
25.41097	4040.469		-60.74148	
25.46507	4036.91		-60.76532	
25.51918	4033.294		-60.79092	
25.57329	4029.642		-60.81782	
25.62739	4025.985		-60.84552	
25.6815	4022.35		-60.87342	
25.7356	4018.758		-60.90092	
25.78971	4015.217		-60.92739	
25.84381	4011.727		-60.95217	
25.89792	4008.292		-60.97462	
25.95203	4004.906		-60.99411	
26.00613	4001.56		-61.01006	
26.06024	3998.247		-61.02201	
26.11435	3994.962		-61.02956	
26.16845	3991.699		-61.03242	
26.22256	3988.449		-61.03035	
26.27666	3985.2		-61.0232	
26.33077	3981.945		-61.01081	
26.38488	3978.683		-60.993	
26.43898	3975.414		-60.96965	
26.49309	3972.137		-60.94062	
26.54719	3968.857		-60.90585	
26.6013	3965.579		-60.86537	
26.65541	3962.304		-60.81924	
26.70951	3959.026		-60.76762	
26.76362	3955.736		-60.71076	
26.81772	3952.421		-60.64897	
26.87183	3949.08		-60.58266	
26.92594	3945.716		-60.5123	
26.98004	3942.334		-60.43845	
27.03415	3938.951		-60.36168	
27.08825	3935.578		-60.28264	
27.14236	3932.217		-60.20196	
27.19647	3928.864		-60.1202	
27.25057	3925.515		-60.03788	
27.30468	3922.163		-59.95538	
27.35878	3918.805		-59.87305	
27.41289	3915.438		-59.79113	
27.467	3912.064		-59.70983	
27.5211	3908.69		-59.62931	
27.57521	3905.326		-59.54971	
27.62931	3901.986		-59.47112	
27.68342	3898.689		-59.39361	
27.73753	3895.453		-59.31724	
27.79163	3892.298		-59.24206	
27.84574	3889.24		-59.16812	
27.89984	3886.284		-59.09549	
27.95395	3883.412		-59.02427	
28.00805	3880.596		-58.95463	
28.06216	3877.808		-58.88676	
28.11627	3875.02		-58.82088	
28.17037	3872.207		-58.7572	
28.22448	3869.349		-58.69589	
28.27859	3866.429		-58.63708	
28.33269	3863.438		-58.58088	
28.3868	3860.374		-58.52734	
28.4409	3857.246		-58.47651	
28.49501	3854.066		-58.42846	
28.54912	3850.855		-58.38327	
28.60322	3847.635		-58.341	
28.65733	3844.421		-58.30168	
28.71143	3841.22		-58.26532	
28.76554	3838.026		-58.23188	
28.81964	3834.831		-58.20127	
28.87375	3831.625		-58.17337	
28.92786	3828.397		-58.14802	
28.98196	3825.146		-58.12508	
29.03607	3821.874		-58.10438	
29.09018	3818.582		-58.08577	
29.14428	3815.283		-58.06909	
29.19839	3811.989		-58.05414	
29.25249	3808.707		-58.04071	
29.3066	3805.448		-58.02858	
29.36071	3802.221		-58.01751	
29.41481	3799.03		-58.00735	
29.46892	3795.882		-57.99791	
29.52302	3792.789		-57.98906	
29.57713	3789.757		-57.98065	
29.63124	3786.775		-57.97252	
29.68534	3783.822		-57.96447	
29.73945	3780.883		-57.95623	
29.79355	3777.945		-57.94749	
29.84766	3774.997		-57.93793	
29.90177	3772.031		-57.92723	
29.95587	3769.035		-57.91515	
30.00998	3766.007		-57.90143	
30.06408	3762.948		-57.88595	
30.11819	3759.854		-57.86863	
30.17229	3756.718		-57.84946	
30.2264	3753.535		-57.82858	
30.28051	3750.302		-57.80619	
30.33461	3747.018		-57.78258	
30.38872	3743.691		-57.75817	
30.44283	3740.334		-57.73344	
30.49693	3736.962		-57.70892	
30.55104	3733.592		-57.6851	
30.60514	3730.238		-57.6624	
30.65925	3726.912		-57.64119	
30.71336	3723.625		-57.62167	
30.76746	3720.379		-57.60397	
30.82157	3717.17		-57.5881	
30.87567	3713.99		-57.57401	
30.92978	3710.839		-57.56156	
30.98388	3707.712		-57.5506	
31.03799	3704.595		-57.54092	
31.0921	3701.483		-57.53227	
31.1462	3698.383		-57.52436	
31.20031	3695.309		-57.5169	
31.25442	3692.271		-57.5096	
31.30852	3689.281		-57.5022	
31.36263	3686.34		-57.49451	
31.41673	3683.437		-57.48639	
31.47084	3680.555		-57.47777	
31.52495	3677.684		-57.46864	
31.57905	3674.811		-57.459	
31.63316	3671.921		-57.44888	
31.68726	3669.004		-57.43823	
31.74137	3666.059		-57.427	
31.79548	3663.083		-57.41509	
31.84958	3660.08		-57.40234	
31.90369	3657.045		-57.38859	
31.95779	3653.971		-57.37361	
32.0119	3650.862		-57.35719	
32.06601	3647.727		-57.33913	
32.12011	3644.57		-57.31932	
32.17422	3641.402		-57.29768	
32.22832	3638.231		-57.27422	
32.28243	3635.065		-57.24902	
32.33654	3631.906		-57.22229	
32.39064	3628.755		-57.19429	
32.44475	3625.608		-57.16533	
32.49885	3622.464		-57.13571	
32.55296	3619.32		-57.10572	
32.60707	3616.169		-57.0756	
32.66117	3613.008		-57.04556	
32.71528	3609.837		-57.01574	
32.76938	3606.657		-56.98626	
32.82349	3603.478		-56.95712	
32.87759	3600.307		-56.92834	
32.9317	3597.146		-56.89984	
32.98581	3593.997		-56.87153	
33.03991	3590.86		-56.84323	
33.09402	3587.733		-56.81474	
33.14812	3584.621		-56.78582	
33.20223	3581.525		-56.75624	
33.25634	3578.441		-56.72579	
33.31044	3575.365		-56.69429	
33.36455	3572.297		-56.66162	
33.41866	3569.239		-56.62771	
33.47276	3566.181		-56.59253	
33.52687	3563.116		-56.55614	
33.58097	3560.038		-56.51863	
33.63508	3556.947		-56.48015	
33.68919	3553.839		-56.44095	
33.74329	3550.71		-56.40134	
33.7974	3547.564		-56.36166	
33.8515	3544.414		-56.32226	
33.90561	3541.27		-56.28345	
33.95972	3538.144		-56.24551	
34.01382	3535.047		-56.20868	
34.06793	3531.983		-56.17316	
34.12203	3528.948		-56.1391	
34.17614	3525.937		-56.10661	
34.23024	3522.943		-56.07574	
34.28435	3519.966		-56.04654	
34.33846	3516.999		-56.01903	
34.39256	3514.038		-55.99318	
34.44667	3511.079		-55.96895	
34.50077	3508.12		-55.94626	
34.55488	3505.162		-55.92503	
34.60899	3502.202		-55.90517	
34.66309	3499.24		-55.88655	
34.7172	3496.279		-55.86908	
34.77131	3493.33		-55.85266	
34.82541	3490.404		-55.83719	
34.87952	3487.503		-55.82257	
34.93362	3484.624		-55.8087	
34.98773	3481.76		-55.79544	
35.04184	3478.906		-55.78262	
35.09594	3476.053		-55.77008	
35.15005	3473.201		-55.75763	
35.20415	3470.346		-55.7451	
35.25826	3467.482		-55.73228	
35.31237	3464.601		-55.71898	
35.36647	3461.698		-55.70503	
35.42058	3458.769		-55.69025	
35.47468	3455.806		-55.67448	
35.52879	3452.809		-55.65761	
35.58289	3449.786		-55.63956	
35.637	3446.75		-55.62034	
35.69111	3443.701		-55.60004	
35.74521	3440.639		-55.5788	
35.79932	3437.564		-55.55678	
35.85342	3434.473		-55.53416	
35.90753	3431.364		-55.5111	
35.96164	3428.238		-55.48774	
36.01574	3425.099		-55.46418	
36.06985	3421.953		-55.44051	
36.12395	3418.805		-55.41674	
36.17806	3415.651		-55.3929	
36.23217	3412.492		-55.36896	
36.28627	3409.324		-55.34485	
36.34038	3406.15		-55.3205	
36.39449	3402.979		-55.29583	
36.44859	3399.825		-55.27072	
36.5027	3396.699		-55.24504	
36.5568	3393.604		-55.21866	
36.61091	3390.542		-55.19145	
36.66502	3387.509		-55.1633	
36.71912	3384.499		-55.13415	
36.77323	3381.503		-55.1039	
36.82733	3378.514		-55.07247	
36.88144	3375.527		-55.03978	
36.93555	3372.535		-55.00573	
36.98965	3369.535		-54.97023	
37.04376	3366.526		-54.93321	
37.09786	3363.514		-54.89462	
37.15197	3360.505		-54.8544	
37.20607	3357.507		-54.81251	
37.26018	3354.525		-54.76891	
37.31429	3351.565		-54.72359	
37.36839	3348.635		-54.67659	
37.4225	3345.736		-54.62793	
37.4766	3342.866		-54.57772	
37.53071	3340.022		-54.52607	
37.58482	3337.2		-54.47314	
37.63892	3334.389		-54.41915	
37.69303	3331.579		-54.36428	
37.74714	3328.763		-54.30876	
37.80124	3325.939		-54.25279	
37.85535	3323.1		-54.19658	
37.90945	3320.24		-54.14035	
37.96356	3317.36		-54.08435	
38.01767	3314.466		-54.02881	
38.07177	3311.565		-53.97401	
38.12588	3308.665		-53.92023	
38.17998	3305.775		-53.86775	
38.23409	3302.906		-53.81681	
38.2882	3300.063		-53.76766	
38.3423	3297.242		-53.72054	
38.39641	3294.433		-53.67566	
38.45051	3291.628		-53.63318	
38.50462	3288.817		-53.59327	
38.55872	3285.992		-53.55607	
38.61283	3283.147		-53.52166	
38.66694	3280.284		-53.49012	
38.72104	3277.406		-53.46144	
38.77515	3274.511		-53.43557	
38.82925	3271.596		-53.4124	
38.88336	3268.661		-53.3918	
38.93747	3265.708		-53.37358	
38.99157	3262.742		-53.35754	
39.04568	3259.774		-53.34346	
39.09978	3256.811		-53.33102	
39.15389	3253.854		-53.3199	
39.208	3250.908		-53.30975	
39.2621	3247.968		-53.30018	
39.31621	3245.037		-53.29079	
39.37032	3242.119		-53.2812	
39.42442	3239.214		-53.27103	
39.47853	3236.32		-53.25992	
39.53263	3233.434		-53.24757	
39.58674	3230.55		-53.23374	
39.64085	3227.661		-53.21821	
39.69495	3224.764		-53.20084	
39.74906	3221.861		-53.18153	
39.80316	3218.958		-53.16022	
39.85727	3216.058		-53.13691	
39.91137	3213.165		-53.11163	
39.96548	3210.28		-53.08449	
40.01959	3207.407		-53.05563	
40.07369	3204.541		-53.02525	
40.1278	3201.679		-52.99357	
40.1819	3198.825		-52.96086	
40.23601	3195.986		-52.92739	
40.29012	3193.165		-52.89347	
40.34422	3190.356		-52.85938	
40.39833	3187.557		-52.82545	
40.45243	3184.755		-52.79198	
40.50654	3181.941		-52.75924	
40.56065	3179.102		-52.7275	
40.61475	3176.227		-52.69699	
40.66886	3173.321		-52.66792	
40.72297	3170.395		-52.64046	
40.77707	3167.453		-52.61478	
40.83118	3164.496		-52.59101	
40.88528	3161.531		-52.56929	
40.93939	3158.571		-52.54969	
40.9935	3155.626		-52.53224	
41.0476	3152.706		-52.51689	
41.10171	3149.817		-52.50352	
41.15581	3146.959		-52.49194	
41.20992	3144.124		-52.4819	
41.26403	3141.305		-52.47307	
41.31813	3138.498		-52.46507	
41.37224	3135.697		-52.4575	
41.42634	3132.902		-52.4499	
41.48045	3130.114		-52.44187	
41.53455	3127.337		-52.43302	
41.58866	3124.581		-52.42303	
41.64277	3121.849		-52.41164	
41.69687	3119.142		-52.39868	
41.75098	3116.456		-52.38404	
41.80508	3113.791		-52.36769	
41.85919	3111.147		-52.34964	
41.9133	3108.52		-52.33	
41.9674	3105.899		-52.30889	
42.02151	3103.276		-52.2865	
42.07561	3100.634		-52.26306	
42.12972	3097.958		-52.23885	
42.18383	3095.236		-52.21415	
42.23793	3092.456		-52.18923	
42.29204	3089.621		-52.16437	
42.34615	3086.742		-52.1398	
42.40025	3083.832		-52.11569	
42.45436	3080.904		-52.09216	
42.50846	3077.972		-52.06926	
42.56257	3075.038		-52.04702	
42.61668	3072.102		-52.02539	
42.67078	3069.164		-52.00435	
42.72489	3066.217		-51.98381	
42.77899	3063.255		-51.96371	
42.8331	3060.276		-51.94397	
42.8872	3057.282		-51.92449	
42.94131	3054.276		-51.90513	
42.99542	3051.262		-51.88573	
43.04952	3048.248		-51.86604	
43.10363	3045.243		-51.84579	
43.15773	3042.26		-51.82465	
43.21184	3039.311		-51.80223	
43.26595	3036.406		-51.77817	
43.32005	3033.552		-51.75208	
43.37416	3030.75		-51.72356	
43.42826	3027.994		-51.69227	
43.48237	3025.271		-51.65792	
43.53648	3022.575		-51.62031	
43.59058	3019.906		-51.57924	
43.64469	3017.258		-51.53466	
43.6988	3014.623		-51.48652	
43.7529	3011.993		-51.43491	
43.80701	3009.359		-51.37994	
43.86111	3006.715		-51.32183	
43.91522	3004.054		-51.26088	
43.96933	3001.371		-51.19746	
44.02343	2998.667		-51.13207	
44.07754	2995.942		-51.06525	
44.13164	2993.201		-50.99765	
44.18575	2990.439		-50.92991	
44.23985	2987.653		-50.86269	
44.29396	2984.846		-50.79661	
44.34807	2982.021		-50.73221	
44.40217	2979.188		-50.66998	
44.45628	2976.352		-50.61031	
44.51038	2973.514		-50.55354	
44.56449	2970.672		-50.4999	
44.6186	2967.822		-50.44953	
44.6727	2964.961		-50.40248	
44.72681	2962.095		-50.35874	
44.78091	2959.234		-50.31819	
44.83502	2956.39		-50.28069	
44.88913	2953.574		-50.24603	
44.94323	2950.795		-50.21402	
44.99734	2948.057		-50.18439	
45.05145	2945.365		-50.15687	
45.10555	2942.718		-50.13111	
45.15966	2940.117		-50.10676	
45.21376	2937.561		-50.0834	
45.26787	2935.045		-50.06063	
45.32198	2932.562		-50.03802	
45.37608	2930.095		-50.01516	
45.43019	2927.628		-49.9917	
45.48429	2925.149		-49.96734	
45.5384	2922.654		-49.9418	
45.59251	2920.144		-49.91488	
45.64661	2917.622		-49.88638	
45.70072	2915.094		-49.85618	
45.75482	2912.561		-49.82421	
45.80893	2910.021		-49.79044	
45.86303	2907.467		-49.75493	
45.91714	2904.89		-49.71782	
45.97124	2902.281		-49.67931	
46.02535	2899.633		-49.63966	
46.07946	2896.941		-49.5992	
46.13356	2894.205		-49.55827	
46.18767	2891.421		-49.51724	
46.24178	2888.589		-49.47646	
46.29588	2885.705		-49.43625	
46.34999	2882.781		-49.39693	
46.40409	2879.83		-49.35876	
46.4582	2876.875		-49.32194	
46.51231	2873.935		-49.28656	
46.56641	2871.023		-49.25266	
46.62052	2868.143		-49.22019	
46.67463	2865.295		-49.189	
46.72873	2862.477		-49.1589	
46.78284	2859.685		-49.1296	
46.83694	2856.917		-49.10082	
46.89105	2854.171		-49.07226	
46.94516	2851.45		-49.04363	
46.99926	2848.754		-49.01464	
47.05337	2846.077		-48.98497	
47.10747	2843.42		-48.95431	
47.16158	2840.787		-48.92231	
47.21568	2838.184		-48.88863	
47.26979	2835.617		-48.85292	
47.3239	2833.088		-48.8149	
47.378	2830.594		-48.77436	
47.43211	2828.122		-48.73111	
47.48621	2825.651		-48.68505	
47.54032	2823.163		-48.63614	
47.59443	2820.65		-48.58441	
47.64853	2818.111		-48.52998	
47.70264	2815.55		-48.47302	
47.75674	2812.971		-48.4138	
47.81085	2810.386		-48.35265	
47.86496	2807.803		-48.28996	
47.91906	2805.223		-48.22614	
47.97317	2802.639		-48.16168	
48.02728	2800.044		-48.09709	
48.08138	2797.434		-48.03292	
48.13549	2794.809		-47.96973	
48.18959	2792.171		-47.90809	
48.2437	2789.523		-47.84857	
48.29781	2786.867		-47.79169	
48.35191	2784.205		-47.7379	
48.40602	2781.537		-47.68752	
48.46012	2778.868		-47.64077	
48.51423	2776.204		-47.59774	
48.56833	2773.556		-47.55847	
48.62244	2770.933		-47.52286	
48.67655	2768.348		-47.49082	
48.73065	2765.803		-47.46222	
48.78476	2763.298		-47.43692	
48.83886	2760.822		-47.41476	
48.89297	2758.368		-47.39559	
48.94707	2755.939		-47.37923	
49.00118	2753.533		-47.36547	
49.05529	2751.14		-47.3541	
49.10939	2748.746		-47.34486	
49.1635	2746.336		-47.33753	
49.21761	2743.901		-47.33186	
49.27171	2741.435		-47.32762	
49.32582	2738.945		-47.32462	
49.37992	2736.44		-47.32267	
49.43403	2733.928		-47.3216	
49.48814	2731.407		-47.32128	
49.54224	2728.88		-47.32162	
49.59635	2726.343		-47.32256	
49.65046	2723.791		-47.32405	
49.70456	2721.224		-47.32606	
49.75867	2718.643		-47.32861	
49.81277	2716.058		-47.33167	
49.86688	2713.478		-47.33526	
49.92099	2710.908		-47.33937	
49.97509	2708.345		-47.34401	
50.0292	2705.781		-47.3492	
50.0833	2703.204		-47.35497	
50.13741	2700.603		-47.36138	
50.19151	2697.979		-47.36847	
50.24562	2695.335		-47.37627	
50.29972	2692.68		-47.38472	
50.35383	2690.022		-47.39374	
50.40794	2687.371		-47.40311	
50.46204	2684.728		-47.41255	
50.51615	2682.091		-47.42167	
50.57026	2679.458		-47.43	
50.62436	2676.828		-47.43702	
50.67847	2674.206		-47.44223	
50.73257	2671.601		-47.44509	
50.78668	2669.013		-47.4451	
50.84079	2666.439		-47.44175	
50.89489	2663.875		-47.43459	
50.949	2661.322		-47.42316	
51.00311	2658.787		-47.40713	
51.05721	2656.27		-47.38621	
51.11132	2653.769		-47.36026	
51.16542	2651.279		-47.32924	
51.21953	2648.788		-47.29322	
51.27364	2646.283		-47.25237	
51.32774	2643.754		-47.20692	
51.38185	2641.198		-47.15719	
51.43595	2638.619		-47.10353	
51.49006	2636.023		-47.04635	
51.54416	2633.419		-46.98611	
51.59827	2630.813		-46.92326	
51.65238	2628.21		-46.8583	
51.70648	2625.609		-46.79169	
51.76059	2623.009		-46.7239	
51.81469	2620.407		-46.65536	
51.8688	2617.801		-46.58649	
51.9229	2615.191		-46.5177	
51.97701	2612.583		-46.44932	
52.03112	2609.976		-46.38166	
52.08522	2607.368		-46.315	
52.13933	2604.757		-46.24958	
52.19344	2602.141		-46.18562	
52.24754	2599.518		-46.12329	
52.30165	2596.887		-46.06274	
52.35575	2594.253		-46.0041	
52.40986	2591.631		-45.94747	
52.46397	2589.031		-45.89288	
52.51807	2586.465		-45.84034	
52.57218	2583.941		-45.78978	
52.62629	2581.465		-45.74103	
52.68039	2579.037		-45.69391	
52.7345	2576.655		-45.64813	
52.7886	2574.313		-45.60338	
52.84271	2572.002		-45.55932	
52.89681	2569.712		-45.51562	
52.95092	2567.43		-45.47195	
53.00503	2565.15		-45.42804	
53.05913	2562.871		-45.38371	
53.11324	2560.596		-45.33883	
53.16734	2558.33		-45.29338	
53.22145	2556.07		-45.24743	
53.27555	2553.813		-45.20113	
53.32966	2551.555		-45.15469	
53.38377	2549.291		-45.10841	
53.43787	2547.017		-45.06264	
53.49198	2544.733		-45.01775	
53.54609	2542.435		-44.97416	
53.60019	2540.114		-44.93229	
53.6543	2537.762		-44.89249	
53.7084	2535.375		-44.85508	
53.76251	2532.955		-44.82026	
53.81662	2530.507		-44.78815	
53.87072	2528.04		-44.75877	
53.92483	2525.559		-44.73207	
53.97894	2523.069		-44.70794	
54.03304	2520.576		-44.68618	
54.08715	2518.077		-44.66656	
54.14125	2515.569		-44.64877	
54.19536	2513.048		-44.63249	
54.24947	2510.515		-44.61735	
54.30357	2507.973		-44.60302	
54.35768	2505.426		-44.58913	
54.41178	2502.879		-44.57539	
54.46589	2500.335		-44.56148	
54.51999	2497.802		-44.54708	
54.5741	2495.287		-44.53189	
54.6282	2492.795		-44.51559	
54.68231	2490.329		-44.49787	
54.73642	2487.892		-44.47842	
54.79052	2485.488		-44.45697	
54.84463	2483.116		-44.43329	
54.89874	2480.771		-44.4072	
54.95284	2478.447		-44.37856	
55.00695	2476.134		-44.34729	
55.06105	2473.823		-44.31331	
55.11516	2471.509		-44.27663	
55.16927	2469.187		-44.23729	
55.22337	2466.855		-44.19537	
55.27748	2464.511		-44.15103	
55.33158	2462.152		-44.1045	
55.38569	2459.771		-44.05605	
55.4398	2457.364		-44.00601	
55.4939	2454.935		-43.95476	
55.54801	2452.485		-43.90272	
55.60212	2450.014		-43.85034	
55.65622	2447.526		-43.79805	
55.71033	2445.021		-43.74624	
55.76443	2442.498		-43.69524	
55.81854	2439.961		-43.6453	
55.87264	2437.416		-43.59665	
55.92675	2434.866		-43.54942	
55.98086	2432.326		-43.50372	
56.03496	2429.81		-43.45954	
56.08907	2427.328		-43.41682	
56.14317	2424.883		-43.37542	
56.19728	2422.482		-43.33509	
56.25138	2420.13		-43.29555	
