T[Â°C]	350nm [counts / mm]	S.D.
20.00049	4375.566	
20.00066	4373.822	
20.00393	4361.772	
20.00711	4362.333	
20.018	4368.956	
20.02441	4359.025	
20.04451	4368.564	
20.05334	4373.329	
20.07739	4368.174	
20.08927	4373.345	
20.12101	4369.145	
20.13425	4357.509	
20.17005	4364.297	
20.1864	4372.062	
20.22899	4363.241	
20.24706	4362.684	
20.29489	4354.214	
20.3152	4362.028	
20.36734	4356.726	
20.38981	4342.747	
20.44622	4356.016	
20.46983	4337.204	
20.53317	4340.743	
20.55885	4340.598	
20.62278	4331.893	
20.65009	4342.577	
20.71779	4320.999	
20.74589	4326.423	
20.81898	4317.496	
20.84905	4320.328	
20.92307	4318.862	
20.95287	4323.68	
21.0278	4313.065	
21.05799	4310.815	
21.13617	4299.039	
21.16779	4307.332	
21.24558	4302.222	
21.27673	4284.251	
21.35343	4287.524	
21.3852	4285.578	
21.46551	4273.4	
21.49789	4273.719	
21.57413	4263.613	
21.6053	4267.486	
21.68278	4272.017	
21.71636	4261.304	
21.79325	4254.987	
21.82496	4260.217	
21.90043	4248.721	
21.93182	4244.381	
22.01213	4239.948	
22.04432	4249.138	
22.12264	4243.801	
22.15325	4232.382	
22.23158	4234.551	
22.26352	4229.591	
22.34044	4221.875	
22.37217	4222.317	
22.451	4206.129	
22.48338	4229.965	
22.55791	4206.188	
22.58917	4197.773	
22.66824	4205.129	
22.6992	4204.431	
22.77797	4194.579	
22.8097	4191.696	
22.88771	4190.629	
22.9185	4177.03	
22.99779	4168.813	
23.03003	4181.363	
23.1067	4168.562	
23.13723	4172.013	
23.216	4172.366	
23.24864	4164.691	
23.32754	4163.274	
23.35859	4169.731	
23.43468	4157.028	
23.46642	4159.953	
23.54503	4156.446	
23.57661	4146.423	
23.65357	4142.547	
23.68497	4142.79	
23.76483	4133.184	
23.79658	4127.733	
23.87312	4138.258	
23.90528	4130.947	
23.98239	4126.667	
24.01509	4122.365	
24.09283	4129.422	
24.124	4124.292	
24.1995	4118.379	
24.23126	4102.231	
24.31053	4104.324	
24.3419	4104.512	
24.42068	4101.25	
24.45211	4088.141	
24.53	4086.808	
24.56092	4084.59	
24.63789	4082.562	
24.67057	4088.424	
24.7499	4070.883	
24.78127	4066.263	
24.85916	4072.612	
24.89147	4072.388	
24.96768	4069.706	
24.99916	4061.757	
25.07598	4052.831	
25.1096	4059.601	
25.18643	4049.329	
25.22021	4049.18	
25.2953	4054.513	
25.32706	4048.716	
25.40486	4041.594	
25.43842	4032.392	
25.51521	4020.866	
25.54686	4027.736	
25.62446	4016.762	
25.65675	4019.007	
25.73326	4026.588	
25.76552	4030.832	
25.84464	4013.071	
25.87528	4007.622	
25.95329	4001.193	
25.98466	4015.705	
26.06215	3998.069	
26.09355	4002.906	
26.17178	3989.919	
26.20428	3984.26	
26.282	3980.432	
26.31478	3976.143	
26.39217	3969.779	
26.42422	3974.283	
26.49959	3962.025	
26.53017	3970.263	
26.61251	3959.666	
26.64731	3959.234	
26.7285	3954.314	
26.76001	3962.647	
26.8353	3953.983	
26.86735	3953.081	
26.9456	3944.938	
26.97718	3944.121	
27.05617	3931.31	
27.08784	3939.213	
27.16486	3936.516	
27.19552	3926.971	
27.27312	3929.647	
27.30494	3918.919	
27.38367	3917.122	
27.41517	3916.118	
27.49307	3916.549	
27.52426	3906.472	
27.60318	3907.324	
27.63529	3893.766	
27.71425	3897.466	
27.74581	3894.51	
27.82054	3895.585	
27.85252	3892.828	
27.93028	3885.873	
27.96199	3887.656	
28.04129	3877.862	
28.07469	3896.32	
28.15051	3873.566	
28.18186	3874.994	
28.259	3866.301	
28.2903	3871.651	
28.3664	3853.465	
28.3986	3864.864	
28.47929	3845.646	
28.51223	3846.119	
28.58862	3849.756	
28.61926	3833.725	
28.69742	3849.863	
28.72891	3836.666	
28.80816	3830.407	
28.84069	3829.583	
28.91674	3825.846	
28.94781	3828.19	
29.02508	3819.253	
29.05723	3827.996	
29.13624	3815.578	
29.16842	3816.48	
29.24504	3814.965	
29.27581	3811.838	
29.35289	3805.236	
29.38475	3799.78	
29.46393	3792.464	
29.49597	3795.178	
29.57548	3782.79	
29.60669	3792.854	
29.68304	3779.474	
29.71415	3775.677	
29.79116	3786.412	
29.82326	3778.493	
29.90135	3777.206	
29.93314	3776.105	
30.00984	3764.657	
30.04123	3757.806	
30.12019	3751.445	
30.15213	3753.119	
30.22917	3757.736	
30.26007	3757.168	
30.33747	3748.164	
30.36912	3745.483	
30.44678	3745.608	
30.47967	3736.533	
30.55708	3726.31	
30.58867	3728.514	
30.66811	3717.041	
30.69993	3713.88	
30.77679	3721.379	
30.80893	3717.824	
30.88573	3719.051	
30.91823	3711.124	
30.99519	3711.645	
31.02711	3697.287	
31.10505	3703.664	
31.13984	3706.021	
31.21856	3700.613	
31.25174	3705.131	
31.32732	3670.958	
31.36205	3700.641	
31.44	3681.341	
31.47166	3675.286	
31.54868	3678.286	
31.58008	3674.483	
31.66128	3666.462	
31.69292	3669.301	
31.76936	3664.754	
31.80168	3657.517	
31.87828	3655.219	
31.9103	3652.19	
31.98939	3660.881	
32.02065	3645.54	
32.10119	3642.028	
32.13415	3641.987	
32.21258	3641.996	
32.24328	3637.265	
32.31886	3640.492	
32.35201	3634.86	
32.43032	3628.132	
32.46195	3612.413	
32.53856	3621.847	
32.57156	3618.35	
32.6486	3604.766	
32.68043	3615.007	
32.75979	3606.521	
32.79409	3601.186	
32.87234	3604.806	
32.90411	3597.15	
32.97893	3598.74	
33.01165	3590.546	
33.08799	3591.962	
33.11968	3591.826	
33.20061	3587.776	
33.23373	3582.579	
33.31083	3569.848	
33.3424	3569.302	
33.41809	3563.287	
33.45221	3558.054	
33.52999	3556.699	
33.5625	3551.765	
33.64191	3558.782	
33.67545	3555.882	
33.75059	3551.781	
33.78073	3553.525	
33.86026	3537.065	
33.89289	3542.458	
33.9702	3540.214	
34.00142	3536.306	
34.08084	3533.989	
34.11251	3529.128	
34.18878	3527.9	
34.21936	3530.95	
34.29803	3521.767	
34.33104	3519.716	
34.4078	3525.447	
34.43858	3512.789	
34.51626	3512.444	
34.54971	3512.958	
34.62387	3502.306	
34.6553	3495.537	
34.73521	3500.851	
34.76668	3505.35	
34.8455	3488.727	
34.87622	3490.149	
34.95411	3481.762	
34.98556	3484.838	
35.06276	3487.691	
35.0934	3481.28	
35.17183	3470.482	
35.20381	3478.15	
35.28572	3465.749	
35.3181	3475.489	
35.39487	3464.35	
35.42616	3457.738	
35.50482	3453.906	
35.53675	3456.276	
35.61408	3449.043	
35.64577	3437.277	
35.72477	3450.933	
35.75737	3429.599	
35.83338	3436.865	
35.8658	3431.593	
35.94226	3423.086	
35.97344	3419.529	
36.05155	3412.899	
36.08402	3424.56	
36.16055	3418.94	
36.19093	3417.239	
36.26839	3416.247	
36.29927	3410.607	
36.37748	3408.595	
36.41335	3405.576	
36.49113	3398.506	
36.52235	3399.656	
36.60032	3395.613	
36.6323	3389.631	
36.70821	3380.319	
36.74004	3379.437	
36.81914	3378.487	
36.85101	3373.991	
36.92735	3373.581	
36.95906	3373.084	
37.03751	3362.305	
37.07039	3361.586	
37.1475	3356.617	
37.17891	3358.7	
37.25634	3353.836	
37.2881	3359.859	
37.36652	3345.706	
37.40162	3349.469	
37.47762	3342.984	
37.50847	3345.361	
37.59265	3341.743	
37.62497	3336.809	
37.70141	3334.485	
37.73349	3330.441	
37.8084	3335.447	
37.84119	3323.512	
37.92422	3329.851	
37.95606	3320.962	
38.03418	3316.897	
38.06534	3318.385	
38.14169	3305.088	
38.17303	3306.463	
38.25274	3299.242	
38.28453	3303.954	
38.36104	3304.16	
38.39374	3277.983	
38.47156	3284.998	
38.50292	3282.84	
38.57928	3288.686	
38.61039	3283.043	
38.69022	3283.786	
38.72176	3278.308	
38.79847	3279.258	
38.83059	3269.658	
38.9099	3268.236	
38.94079	3268.826	
39.01766	3260.513	
39.04921	3254.303	
39.12711	3252.152	
39.15844	3254.05	
39.23569	3248.551	
39.2687	3243.389	
39.34519	3248.053	
39.37627	3241.183	
39.45597	3234.663	
39.48691	3230.16	
39.56469	3236.913	
39.59685	3223.475	
39.67568	3232.105	
39.70691	3231.829	
39.78405	3211.785	
39.8158	3225.331	
39.89491	3226.589	
39.92546	3214.459	
40.00216	3211.475	
40.0373	3209.923	
40.11728	3201.059	
40.14817	3188.077	
40.22784	3203.235	
40.25934	3181.924	
40.33813	3197.023	
40.37329	3185.94	
40.45166	3180.345	
40.48302	3182.662	
40.56462	3182.227	
40.59666	3177.547	
40.67491	3169.574	
40.70892	3173.043	
40.78732	3167.08	
40.81905	3169.151	
40.89616	3171.333	
40.92757	3155.035	
41.00641	3155.954	
41.04081	3152.873	
41.12038	3155.427	
41.15153	3148.859	
41.22712	3146.203	
41.25855	3142.106	
41.33754	3142.075	
41.36957	3138.381	
41.44746	3139.422	
41.47874	3137.87	
41.55688	3128.64	
41.59135	3133.908	
41.66959	3121.615	
41.70283	3116.701	
41.77904	3117.338	
41.81091	3117.847	
41.88806	3118.375	
41.9186	3101.828	
41.99876	3111.904	
42.03069	3097.799	
42.10789	3095.162	
42.14028	3094.793	
42.21768	3088.207	
42.25037	3087.723	
42.32642	3081.261	
42.35734	3081.639	
42.43393	3085.956	
42.4655	3081.203	
42.54398	3078.845	
42.57638	3067.802	
42.65572	3077.865	
42.68675	3062.623	
42.76414	3071.261	
42.79626	3064.242	
42.87355	3060.816	
42.90514	3053.41	
42.98197	3052.81	
43.01414	3046.452	
43.09103	3040.676	
43.12322	3041.09	
43.19935	3037.784	
43.23257	3029.636	
43.31126	3039.62	
43.3436	3033.189	
43.42195	3022.909	
43.45213	3029.808	
43.528	3030.876	
43.56018	3023.321	
43.63927	3024.653	
43.67102	3018.473	
43.75023	3015.595	
43.78133	3006.197	
43.85757	2995.698	
43.89006	3001.613	
43.96721	2998.482	
44.00103	2995.772	
44.07685	2989.64	
44.10777	2988.562	
44.18658	2991.165	
44.21767	2985.365	
44.2956	2981.773	
44.3283	2980.439	
44.40546	2986.034	
44.43729	2971.716	
44.51517	2975.516	
44.54617	2969.149	
44.62399	2969.882	
44.65571	2960.181	
44.73228	2970.787	
44.76396	2965.77	
44.84148	2968.957	
44.87453	2960.811	
44.95182	2960.912	
44.98327	2943.107	
45.06116	2954.239	
45.09212	2948.077	
45.17083	2941.71	
45.20177	2939.596	
45.28122	2934.965	
45.3145	2935.583	
45.39106	2932.019	
45.42339	2917.51	
45.49924	2930.001	
45.53131	2929.183	
45.60898	2918.319	
45.64018	2906.349	
45.71804	2910.342	
45.74997	2910.928	
45.82827	2905.627	
45.85989	2904.93	
45.93768	2905.542	
45.96893	2899.616	
46.04666	2908.058	
46.07826	2892.378	
46.15607	2893.34	
46.18734	2891.755	
46.26536	2882.275	
46.29595	2884.09	
46.37333	2886.035	
46.40499	2884.389	
46.48267	2873.528	
46.51417	2867.263	
46.59199	2874.298	
46.62419	2868.034	
46.70443	2868.73	
46.73567	2860.821	
46.81206	2859.171	
46.84426	2862.296	
46.92178	2859.067	
46.95385	2847.784	
47.03188	2842.215	
47.06295	2849.912	
47.14081	2841.234	
47.17303	2842.511	
47.24897	2841.136	
47.28194	2839.242	
47.35932	2830.85	
47.39141	2821.423	
47.46849	2825.921	
47.50042	2823.147	
47.5774	2823.723	
47.60961	2811.526	
47.68913	2817.634	
47.72058	2814.725	
47.79688	2815.159	
47.83023	2804.169	
47.90704	2803.644	
47.93954	2808.063	
48.01586	2797.469	
48.04764	2796.614	
48.12523	2804.737	
48.15746	2789.746	
48.2355	2789.45	
48.26698	2790.673	
48.34437	2780.976	
48.37625	2780.826	
48.45279	2773.069	
48.48419	2778.16	
48.56262	2780.576	
48.59513	2768.812	
48.67269	2775.632	
48.70445	2768.892	
48.78036	2774.011	
48.81202	2758.655	
48.89102	2757.777	
48.92255	2763.991	
49.00116	2760.691	
49.03268	2764.618	
49.11035	2750.154	
49.14237	2751.647	
49.22052	2747.056	
49.25214	2737.79	
49.3303	2737.598	
49.36236	2738.417	
49.43867	2731.869	
49.47063	2734.597	
49.5481	2726.393	
49.5793	2720.458	
49.65722	2738.678	
49.69062	2723.254	
49.7679	2722.452	
49.79987	2722.23	
49.87823	2709.033	
49.90926	2710.951	
49.98706	2711.526	
50.01876	2709.689	
50.09776	2706.378	
50.12886	2696.593	
50.20509	2701.778	
50.23703	2691.873	
50.31648	2688.224	
50.34803	2689.148	
50.42472	2684.283	
50.45612	2684.328	
50.53415	2690.238	
50.56552	2679.123	
50.64451	2681.594	
50.67701	2668.327	
50.75335	2674.853	
50.78485	2667.969	
50.86456	2662.113	
50.89637	2663.378	
50.97366	2666.609	
51.00478	2648.959	
51.08146	2660.155	
51.11448	2651.558	
51.19312	2646.575	
51.22448	2641.115	
51.30327	2645.246	
51.33446	2637.964	
51.41204	2643.765	
51.44379	2641.464	
51.51983	2632.988	
51.55039	2627.825	
51.63033	2631.128	
51.66238	2631.685	
51.74066	2626.554	
51.77216	2626.522	
51.85061	2613.138	
51.88296	2613.392	
51.96022	2610.725	
51.99027	2608.116	
52.06766	2616.813	
52.09965	2613.978	
52.17704	2612.871	
52.20873	2593.537	
52.29199	2607.994	
52.32361	2595.842	
52.4035	2606.632	
52.43485	2585.479	
52.51146	2586.915	
52.54678	2591.985	
52.62815	2578.877	
52.6594	2574.095	
52.73631	2580.451	
52.77002	2581.525	
52.848	2576.047	
52.87989	2568.369	
52.95847	2568.235	
52.98957	2561.206	
53.06853	2556.545	
53.10006	2561.037	
53.18089	2565.247	
53.21217	2553.837	
53.29395	2554.945	
53.32656	2549.537	
53.40334	2549.807	
53.43504	2545.755	
53.51345	2541.729	
53.54563	2539.152	
53.62357	2534.785	
53.65422	2529.519	
53.73585	2538.179	
53.76805	2529.722	
53.85057	2525.375	
53.88345	2523.699	
53.95864	2521.422	
53.98943	2510.612	
54.06938	2519.675	
54.10522	2507.57	
54.18317	2518.467	
54.21769	2513.615	
54.29614	2513.945	
54.3296	2500.931	
54.40535	2505.9	
54.44107	2495.285	
54.5186	2499.757	
54.55054	2495.938	
54.62803	2498.306	
54.66008	2487.783	
54.73792	2484.562	
54.77047	2475.461	
54.84746	2487.444	
54.87879	2478.238	
54.95742	2483.041	
54.98833	2473.6	
55.06536	2475.512	
55.09846	2469.892	
55.17563	2468.135	
55.20872	2467.966	
55.28666	2462.401	
55.31886	2456.136	
55.39341	2459.672	
55.42478	2457.269	
55.50414	2452.208	
55.53638	2460.037	
55.6141	2450.076	
55.64579	2440.125	
55.7237	2448.804	
55.75878	2442.878	
55.83659	2445.205	
55.87097	2432.682	
55.94859	2446.304	
55.98071	2439.115	
56.06417	2433.129	
56.09509	2434.499	
56.17505	2431.525	
56.20776	2424.497	
56.28624	2422.888	
56.31676	2415.254	
56.39738	2412.863	
56.42933	2413.668	
56.51307	2418.707	
56.54479	2408.819	
56.62184	2409.537	
56.65599	2398.197	
56.73319	2396.945	
56.766	2393.192	
56.84375	2397.324	
56.87606	2389.067	
56.95596	2399.094	
56.98629	2390.141	
57.06498	2396.522	
57.09558	2384.139	
57.1737	2388.385	
57.20889	2383.624	
57.28632	2384.269	
57.32096	2375.379	
57.40013	2382.872	
57.43201	2369.109	
57.50796	2369.781	
57.53925	2360.518	
57.61875	2361.988	
57.65025	2359.347	
57.72803	2359.771	
57.75926	2351.633	
57.83749	2356.923	
57.8718	2357.235	
57.95109	2351.694	
57.98214	2341.502	
58.06287	2352.253	
58.09531	2344.646	
58.17582	2337.243	
58.20723	2341.021	
58.28353	2333.728	
58.31676	2330.328	
58.39367	2333.414	
58.42522	2320.374	
58.50189	2332.043	
58.53342	2317.748	
58.61204	2326.356	
58.64413	2313.132	
58.72322	2314.198	
58.75465	2310.252	
58.83092	2319.083	
58.86254	2308.404	
58.94032	2310.804	
58.97263	2307.782	
59.05159	2304.702	
59.08258	2299.278	
59.15909	2304.047	
59.19038	2303.065	
59.26868	2298.376	
59.30115	2285.719	
59.37916	2295.381	
59.40983	2289.097	
59.4852	2283.025	
59.51987	2284.867	
59.59961	2288.963	
59.63073	2278.478	
59.70664	2288.376	
59.73817	2270.233	
59.81671	2282.233	
59.84899	2273.881	
59.92728	2278.602	
59.95877	2266.504	
60.03524	2266.791	
60.06729	2259.136	
60.14397	2255.934	
60.17604	2257.671	
60.25504	2261.78	
60.28644	2254.595	
60.36382	2259.126	
60.39567	2254.707	
60.47345	2249.294	
60.50569	2250.807	
60.58381	2246.747	
60.61446	2231.06	
60.69398	2239.445	
60.72583	2232.454	
60.80313	2242.922	
60.83488	2233.599	
60.91214	2229.204	
60.94374	2230.833	
61.02085	2232.32	
61.05275	2219.104	
61.13235	2221.194	
61.16391	2217.788	
61.24025	2216.843	
61.27186	2213.585	
61.35093	2219.523	
61.38281	2204.117	
61.45799	2207.464	
61.49087	2213.839	
61.57176	2201.942	
61.60284	2202.223	
61.6797	2200.499	
61.7114	2198.284	
61.78741	2198.599	
61.81905	2195.472	
61.90038	2199.048	
61.93201	2186.404	
62.00858	2193.384	
62.04111	2181.802	
62.11736	2189.864	
62.14839	2183.394	
62.22655	2186.959	
62.25761	2178.981	
62.34118	2186.255	
62.37364	2179.261	
62.45009	2171.688	
62.48169	2158.171	
62.55857	2167.618	
62.58997	2167.683	
62.66886	2161.117	
62.70095	2152.911	
62.77946	2158.982	
62.81089	2157.417	
62.88813	2160.043	
62.9203	2153.685	
62.99839	2152.44	
63.03083	2148.117	
63.10833	2147.579	
63.13954	2150.077	
63.21692	2143.775	
63.24852	2139.936	
63.3292	2141.539	
63.3617	2135.548	
63.44055	2146.224	
63.47223	2130.113	
63.54893	2146.644	
63.58071	2136.344	
63.65919	2138.777	
63.69117	2131.354	
63.7697	2130.109	
63.80184	2125.406	
63.87964	2125.906	
63.91174	2124.951	
63.98703	2130.081	
64.01825	2112.992	
64.09698	2125.355	
64.13145	2116.298	
64.21106	2118.357	
64.24286	2109.86	
64.3199	2119.096	
64.35155	2106.128	
64.42983	2114.717	
64.46114	2099.524	
64.5383	2104.622	
64.56982	2109.368	
64.64835	2110.003	
64.68333	2103.76	
64.76259	2108.332	
64.79341	2093.675	
64.87386	2097.464	
64.90701	2100.919	
64.98458	2098.91	
65.0183	2094.418	
65.09818	2094.697	
65.12944	2094.02	
65.20824	2102.401	
65.24297	2094.487	
65.32206	2094.362	
65.35495	2089.892	
65.43166	2091.74	
65.46219	2082.206	
65.53925	2091.205	
65.57472	2087.723	
65.65516	2101.535	
65.68906	2085.016	
65.76543	2094.693	
65.79697	2086.473	
65.87914	2093.405	
65.91112	2093.481	
65.98947	2092.77	
66.02087	2088.008	
66.10388	2103.444	
66.13554	2085.333	
66.21183	2089.745	
66.24411	2083.514	
66.32217	2093.371	
66.35402	2087.302	
66.4322	2097.926	
66.46345	2093.253	
66.54	2101.354	
66.57194	2098.516	
66.65093	2100.306	
66.68351	2100.222	
66.76028	2108.256	
66.79465	2100.609	
66.87177	2112.031	
66.90347	2108.251	
66.98663	2118.748	
67.02425	2116	
67.09994	2116.551	
67.13131	2113.84	
67.21273	2126.706	
67.24521	2117.542	
67.32552	2137.469	
67.3575	2131.581	
67.43728	2144.565	
67.47267	2142.898	
67.54981	2157.482	
67.58012	2150.123	
67.66173	2166.17	
67.69444	2159.737	
67.77296	2166.632	
67.80741	2163.153	
67.88455	2187.222	
67.91622	2181.668	
67.99898	2195.831	
68.03146	2192.994	
68.10636	2204.415	
68.14117	2206.298	
68.22179	2225.772	
68.25356	2231.522	
68.3305	2238.148	
68.36234	2239.262	
68.4445	2252.602	
68.47562	2252.693	
68.55342	2272.434	
68.58815	2282.829	
68.66764	2285.99	
68.70047	2292.653	
68.77946	2316.682	
68.81055	2308.121	
68.89301	2327.882	
68.92679	2327.049	
69.00278	2348.69	
69.03407	2353.209	
69.11214	2378.733	
69.14622	2376.801	
69.22481	2410.175	
69.25552	2406.747	
69.33649	2437.642	
69.37086	2441.288	
69.44798	2467.066	
69.48011	2466.515	
69.55615	2494.665	
69.58774	2501.571	
69.66681	2531.231	
69.69881	2531.661	
69.77584	2564.012	
69.80855	2560.279	
69.88634	2598.904	
69.9191	2604.545	
69.99617	2638.34	
70.02837	2630.946	
70.10584	2675.898	
70.13881	2673.821	
70.21509	2716.993	
70.25044	2721.077	
70.32853	2758.619	
70.36237	2761.89	
70.4409	2795.851	
70.47237	2801.474	
70.55096	2851.447	
70.58561	2849.085	
70.66335	2890.2	
70.69697	2895.515	
70.77731	2947.986	
70.81224	2955.206	
70.89096	2991.164	
70.92242	2995.004	
71.00463	3054.116	
71.03793	3056.746	
71.11292	3104.692	
71.14542	3111.15	
71.22621	3161.414	
71.26208	3164.972	
71.34091	3220.355	
71.37217	3224.515	
71.45352	3286.906	
71.48598	3290.607	
71.56144	3333.402	
71.59515	3345.479	
71.67636	3393.604	
71.70937	3402.486	
71.78648	3463.2	
71.81777	3466.127	
71.89849	3530.036	
71.93243	3534.155	
72.01108	3593.578	
72.0432	3598.283	
72.12218	3651.09	
72.15707	3679.644	
72.23552	3724.188	
72.26628	3730.594	
72.34243	3781.505	
72.37737	3787.128	
72.4572	3832.617	
72.48888	3840.432	
72.56697	3888.427	
72.6018	3897.477	
72.67945	3952.254	
72.71061	3947.399	
72.79006	3989.409	
72.82577	3999.984	
72.90327	4044.812	
72.9341	4032.989	
73.01186	4085.232	
73.04634	4084.311	
73.12524	4120.574	
73.15677	4123.787	
73.2368	4159.112	
73.27137	4148.688	
73.34808	4189.517	
73.37943	4178.019	
73.45751	4213.071	
73.49279	4204.606	
73.57139	4242.369	
73.60159	4225.174	
73.68028	4265.676	
73.71232	4248.434	
73.79294	4289.082	
73.82641	4270.274	
73.90416	4295.829	
73.936	4295.15	
74.01257	4317.14	
74.04829	4301.05	
74.12724	4324.877	
74.15814	4313.081	
74.23584	4338.609	
74.26755	4324.841	
74.34818	4358.602	
74.38118	4351.751	
74.45885	4380.221	
74.49021	4356.771	
74.56899	4390.43	
74.5996	4365.414	
74.68037	4399.197	
74.7121	4374.414	
74.79069	4406.085	
74.82227	4396.711	
74.90356	4424.7	
74.93877	4393.605	
75.01628	4422.155	
75.04838	4397.522	
75.12689	4427.349	
75.15891	4415.629	
75.23595	4428.93	
75.27077	4423.412	
75.34819	4444.153	
75.37971	4432.811	
75.45956	4444.751	
75.4945	4441.432	
75.57271	4462.03	
75.60396	4456.12	
75.68168	4479.465	
75.71385	4462.139	
75.79337	4483.687	
75.82922	4466.016	
75.91019	4481.144	
75.94147	4473.24	
76.0187	4496.999	
76.05046	4479.459	
76.12947	4503.45	
76.16402	4490.528	
76.24474	4516.714	
76.27731	4496.235	
76.35526	4523.263	
76.38594	4500.377	
76.46518	4530.412	
76.4978	4507.388	
76.57768	4533.924	
76.61145	4514.713	
76.69036	4544.028	
76.7223	4512.96	
76.80138	4545.278	
76.83276	4527.693	
76.91151	4543.76	
76.94623	4536.086	
77.02374	4542.842	
77.05594	4536.139	
77.13335	4559.414	
77.16386	4536.956	
77.24284	4560.186	
77.27502	4548.746	
77.35319	4566.611	
77.38453	4540.976	
77.46485	4568.166	
77.4974	4548.733	
77.57567	4566.75	
77.60706	4552.4	
77.68874	4572.015	
77.72211	4553.945	
