T[Â°C]	350nm [counts / mm]	S.D.	First derivative	S.D. of first derivative
20.00061	4342.449		-67.10589	
20.05472	4338.672		-66.9635	
20.10883	4334.905		-66.82168	
20.16294	4331.148		-66.68047	
20.21705	4327.401		-66.53987	
20.27115	4323.664		-66.39996	
20.32526	4319.936		-66.26075	
20.37937	4316.218		-66.12227	
20.43348	4312.51		-65.98458	
20.48759	4308.812		-65.8477	
20.5417	4305.125		-65.71169	
20.5958	4301.451		-65.57655	
20.64991	4297.787		-65.44234	
20.70402	4294.135		-65.30909	
20.75813	4290.493		-65.17683	
20.81224	4286.861		-65.04558	
20.86635	4283.241		-64.91537	
20.92046	4279.651		-64.78624	
20.97456	4276.162		-64.65819	
21.02867	4272.654		-64.53123	
21.08278	4269.123		-64.4054	
21.13689	4265.58		-64.28066	
21.191	4262.037		-64.15705	
21.24511	4258.509		-64.03455	
21.29921	4255.007		-63.91315	
21.35332	4251.547		-63.79285	
21.40743	4248.131		-63.67362	
21.46154	4244.752		-63.55544	
21.51565	4241.399		-63.43829	
21.56976	4238.055		-63.32212	
21.62387	4234.7		-63.20688	
21.67797	4231.319		-63.09253	
21.73208	4227.91		-62.97899	
21.78619	4224.481		-62.8662	
21.8403	4221.038		-62.75406	
21.89441	4217.588		-62.64248	
21.94851	4214.145		-62.53133	
22.00262	4210.719		-62.4205	
22.05673	4207.331		-62.3098	
22.11084	4204.003		-62.19907	
22.16495	4200.749		-62.0881	
22.21906	4197.569		-61.97668	
22.27316	4194.456		-61.86459	
22.32727	4191.394		-61.75165	
22.38138	4188.365		-61.63775	
22.43549	4185.353		-61.52297	
22.4896	4182.333		-61.40771	
22.54371	4179.286		-61.2928	
22.59782	4176.207		-61.17944	
22.65192	4173.096		-61.11291	
22.70603	4169.962		-61.04879	
22.76014	4166.813		-60.9871	
22.81425	4163.665		-60.92785	
22.86836	4160.522		-60.87102	
22.92247	4157.384		-60.81657	
22.97658	4154.246		-60.76444	
23.03068	4151.089		-60.71451	
23.08479	4147.898		-60.66663	
23.1389	4144.663		-60.62061	
23.19301	4141.377		-60.5762	
23.24712	4138.043		-60.53315	
23.30123	4134.675		-60.49115	
23.35533	4131.282		-60.44989	
23.40944	4127.873		-60.40904	
23.46355	4124.456		-60.36829	
23.51766	4121.04		-60.32737	
23.57177	4117.625		-60.28603	
23.62588	4114.209		-60.24407	
23.67999	4110.798		-60.20135	
23.73409	4107.4		-60.15781	
23.7882	4104.019		-60.11337	
23.84231	4100.654		-60.06804	
23.89642	4097.311		-60.02187	
23.95053	4093.98		-59.97492	
24.00463	4090.652		-59.9273	
24.05874	4087.319		-59.87914	
24.11285	4083.978		-59.83058	
24.16696	4080.635		-59.78179	
24.22107	4077.298		-59.73294	
24.27518	4073.975		-59.68422	
24.32928	4070.674		-59.6358	
24.38339	4067.404		-59.58785	
24.4375	4064.168		-59.54049	
24.49161	4060.957		-59.49384	
24.54572	4057.759		-59.44799	
24.59983	4054.558		-59.40304	
24.65394	4051.338		-59.3591	
24.70804	4048.086		-59.31628	
24.76215	4044.799		-59.27467	
24.81626	4041.487		-59.23437	
24.87037	4038.169		-59.19545	
24.92448	4034.868		-59.15802	
24.97859	4031.602		-59.12219	
25.03269	4028.371		-59.08807	
25.0868	4025.17		-59.05576	
25.14091	4021.983		-59.02528	
25.19502	4018.799		-58.99668	
25.24913	4015.617		-58.96995	
25.30324	4012.443		-58.94504	
25.35735	4009.281		-58.92186	
25.41145	4006.139		-58.90025	
25.46556	4003.028		-58.88002	
25.51967	3999.958		-58.86091	
25.57378	3996.934		-58.84267	
25.62789	3993.959		-58.82505	
25.682	3991.033		-58.80785	
25.7361	3988.147		-58.79093	
25.79021	3985.288		-58.77425	
25.84432	3982.448		-58.75785	
25.89843	3979.624		-58.74189	
25.95254	3976.808		-58.72649	
26.00665	3973.986		-58.71187	
26.06075	3971.141		-58.69819	
26.11486	3968.251		-58.68563	
26.16897	3965.303		-58.67434	
26.22308	3962.286		-58.66447	
26.27719	3959.196		-58.65617	
26.3313	3956.033		-58.64962	
26.3854	3952.801		-58.64496	
26.43951	3949.512		-58.64234	
26.49362	3946.185		-58.64191	
26.54773	3942.837		-58.6438	
26.60184	3939.483		-58.64811	
26.65595	3936.135		-58.65493	
26.71006	3932.79		-58.6643	
26.76416	3929.442		-58.67617	
26.81827	3926.078		-58.69047	
26.87238	3922.688		-58.70704	
26.92649	3919.275		-58.72564	
26.9806	3915.847		-58.74604	
27.03471	3912.414		-58.76788	
27.08881	3908.99		-58.79076	
27.14292	3905.588		-58.81424	
27.19703	3902.21		-58.83783	
27.25114	3898.864		-58.861	
27.30525	3895.555		-58.88321	
27.35936	3892.288		-58.9039	
27.41347	3889.063		-58.92247	
27.46757	3885.868		-58.93833	
27.52168	3882.693		-58.95081	
27.57579	3879.531		-58.95926	
27.6299	3876.385		-58.96296	
27.68401	3873.251		-58.9613	
27.73812	3870.124		-58.95372	
27.79222	3866.993		-58.9398	
27.84633	3863.854		-58.91925	
27.90044	3860.706		-58.8919	
27.95455	3857.548		-58.85775	
28.00866	3854.393		-58.81691	
28.06277	3851.245		-58.76963	
28.11687	3848.104		-58.71631	
28.17098	3844.969		-58.65743	
28.22509	3841.838		-58.59358	
28.2792	3838.713		-58.52547	
28.33331	3835.585		-58.45383	
28.38742	3832.441		-58.37949	
28.44152	3829.28		-58.3033	
28.49563	3826.1		-58.2261	
28.54974	3822.901		-58.14878	
28.60385	3819.684		-58.07215	
28.65796	3816.462		-57.99702	
28.71207	3813.249		-57.92414	
28.76617	3810.054		-57.85417	
28.82028	3806.884		-57.78769	
28.87439	3803.737		-57.72519	
28.9285	3800.604		-57.66703	
28.98261	3797.473		-57.61351	
29.03672	3794.329		-57.56483	
29.09083	3791.168		-57.52113	
29.14493	3787.986		-57.48245	
29.19904	3784.784		-57.44879	
29.25315	3781.573		-57.42008	
29.30726	3778.375		-57.39621	
29.36137	3775.214		-57.37701	
29.41548	3772.103		-57.36227	
29.46959	3769.048		-57.35167	
29.52369	3766.042		-57.34485	
29.5778	3763.08		-57.34137	
29.63191	3760.159		-57.34072	
29.68602	3757.276		-57.34238	
29.74013	3754.421		-57.34582	
29.79424	3751.582		-57.35049	
29.84834	3748.74		-57.35586	
29.90245	3745.876		-57.36145	
29.95656	3742.981		-57.36679	
30.01067	3740.053		-57.37144	
30.06478	3737.094		-57.37501	
30.11889	3734.113		-57.37716	
30.17299	3731.119		-57.37761	
30.2271	3728.118		-57.37618	
30.28121	3725.11		-57.37275	
30.33532	3722.092		-57.36729	
30.38943	3719.058		-57.35981	
30.44354	3716.003		-57.35041	
30.49764	3712.922		-57.33925	
30.55175	3709.81		-57.32652	
30.60586	3706.666		-57.31242	
30.65997	3703.489		-57.29714	
30.71408	3700.277		-57.28085	
30.76819	3697.031		-57.26369	
30.82229	3693.76		-57.2458	
30.8764	3690.477		-57.22728	
30.93051	3687.199		-57.20823	
30.98462	3683.944		-57.18876	
31.03873	3680.713		-57.16901	
31.09284	3677.5		-57.14911	
31.14695	3674.292		-57.12918	
31.20105	3671.081		-57.10933	
31.25516	3667.863		-57.08963	
31.30927	3664.64		-57.07012	
31.36338	3661.419		-57.05077	
31.41749	3658.208		-57.0315	
31.4716	3655.01		-57.01218	
31.5257	3651.823		-56.99264	
31.57981	3648.641		-56.97268	
31.63392	3645.463		-56.95212	
31.68803	3642.291		-56.93077	
31.74214	3639.128		-56.9085	
31.79625	3635.972		-56.88517	
31.85036	3632.825		-56.86073	
31.90446	3629.69		-56.8351	
31.95857	3626.564		-56.80824	
32.01268	3623.449		-56.78006	
32.06679	3620.347		-56.75047	
32.1209	3617.262		-56.71936	
32.17501	3614.194		-56.68664	
32.22911	3611.138		-56.65221	
32.28322	3608.096		-56.616	
32.33733	3605.066		-56.57799	
32.39144	3602.051		-56.53818	
32.44555	3599.049		-56.49666	
32.49966	3596.061		-56.45356	
32.55376	3593.091		-56.40908	
32.60787	3590.143		-56.36346	
32.66198	3587.221		-56.317	
32.71609	3584.33		-56.26999	
32.7702	3581.465		-56.2228	
32.82431	3578.614		-56.17579	
32.87841	3575.763		-56.12935	
32.93252	3572.906		-56.08392	
32.98663	3570.038		-56.03996	
33.04074	3567.16		-55.99794	
33.09485	3564.277		-55.95832	
33.14896	3561.393		-55.92155	
33.20306	3558.503		-55.88803	
33.25717	3555.6		-55.85815	
33.31128	3552.674		-55.83217	
33.36539	3549.72		-55.81026	
33.4195	3546.732		-55.79246	
33.47361	3543.708		-55.77863	
33.52771	3540.648		-55.76849	
33.58183	3537.559		-55.76167	
33.63593	3534.449		-55.75771	
33.69004	3531.334		-55.75609	
33.74415	3528.221		-55.75633	
33.79826	3525.11		-55.75792	
33.85237	3522.002		-55.76037	
33.90648	3518.901		-55.76323	
33.96058	3515.81		-55.76605	
34.01469	3512.735		-55.7684	
34.0688	3509.678		-55.76984	
34.12291	3506.644		-55.76995	
34.17702	3503.626		-55.76834	
34.23112	3500.618		-55.7646	
34.28523	3497.611		-55.75837	
34.33934	3494.598		-55.74926	
34.39345	3491.578		-55.73694	
34.44756	3488.547		-55.72114	
34.50167	3485.505		-55.7016	
34.55577	3482.456		-55.67817	
34.60988	3479.406		-55.65071	
34.66399	3476.364		-55.61917	
34.7181	3473.343		-55.58353	
34.77221	3470.353		-55.5438	
34.82632	3467.394		-55.50003	
34.88042	3464.459		-55.45233	
34.93454	3461.532		-55.40085	
34.98864	3458.585		-55.34583	
35.04275	3455.595		-55.28757	
35.09686	3452.548		-55.22646	
35.15097	3449.44		-55.16298	
35.20508	3446.282		-55.09773	
35.25919	3443.09		-55.03133	
35.31329	3439.882		-54.96446	
35.3674	3436.675		-54.89772	
35.42151	3433.484		-54.8317	
35.47562	3430.314		-54.76689	
35.52973	3427.169		-54.70374	
35.58384	3424.049		-54.6426	
35.63794	3420.956		-54.58379	
35.69205	3417.886		-54.52755	
35.74616	3414.833		-54.47406	
35.80027	3411.788		-54.42342	
35.85438	3408.752		-54.37566	
35.90849	3405.734		-54.33076	
35.96259	3402.75		-54.28865	
36.0167	3399.815		-54.24923	
36.07081	3396.94		-54.21244	
36.12492	3394.125		-54.17819	
36.17903	3391.361		-54.14645	
36.23314	3388.635		-54.11721	
36.28724	3385.939		-54.09047	
36.34135	3383.272		-54.06623	
36.39546	3380.629		-54.04451	
36.44957	3377.999		-54.02532	
36.50368	3375.373		-54.00867	
36.55779	3372.74		-53.99454	
36.6119	3370.086		-53.98293	
36.666	3367.407		-53.97378	
36.72011	3364.7		-53.96698	
36.77422	3361.969		-53.96237	
36.82833	3359.221		-53.95969	
36.88244	3356.463		-53.95865	
36.93655	3353.695		-53.95892	
36.99065	3350.914		-53.96016	
37.04476	3348.117		-53.96202	
37.09887	3345.292		-53.9642	
37.15298	3342.427		-53.96646	
37.20709	3339.513		-53.96864	
37.2612	3336.551		-53.97065	
37.3153	3333.548		-53.97248	
37.36941	3330.518		-53.97412	
37.42352	3327.474		-53.97559	
37.47763	3324.429		-53.97692	
37.53174	3321.4		-53.97815	
37.58585	3318.399		-53.97929	
37.63995	3315.433		-53.98039	
37.69407	3312.499		-53.98149	
37.74817	3309.584		-53.9826	
37.80228	3306.67		-53.98371	
37.85639	3303.737		-53.9847	
37.9105	3300.775		-53.98541	
37.96461	3297.786		-53.98561	
38.01871	3294.776		-53.98503	
38.07282	3291.757		-53.98338	
38.12693	3288.737		-53.98036	
38.18104	3285.72		-53.97572	
38.23515	3282.704		-53.96924	
38.28926	3279.684		-53.9607	
38.34336	3276.659		-53.94995	
38.39747	3273.624		-53.93686	
38.45158	3270.574		-53.9214	
38.50569	3267.505		-53.90363	
38.5598	3264.41		-53.88366	
38.61391	3261.288		-53.86159	
38.66801	3258.139		-53.83754	
38.72212	3254.969		-53.81153	
38.77623	3251.792		-53.78357	
38.83034	3248.619		-53.75357	
38.88445	3245.463		-53.72145	
38.93856	3242.34		-53.6871	
38.99266	3239.268		-53.65039	
39.04677	3236.26		-53.61119	
39.10088	3233.318		-53.5694	
39.15499	3230.432		-53.52493	
39.2091	3227.593		-53.47773	
39.26321	3224.792		-53.42783	
39.31731	3222.02		-53.37527	
39.37143	3219.27		-53.32019	
39.42553	3216.538		-53.26274	
39.47964	3213.825		-53.20311	
39.53375	3211.134		-53.14153	
39.58786	3208.467		-53.07829	
39.64197	3205.821		-53.01374	
39.69608	3203.192		-52.94832	
39.75018	3200.566		-52.88247	
39.80429	3197.932		-52.81668	
39.8584	3195.286		-52.75145	
39.91251	3192.628		-52.68724	
39.96662	3189.96		-52.62447	
40.02073	3187.28		-52.56348	
40.07483	3184.585		-52.50454	
40.12894	3181.874		-52.44784	
40.18305	3179.135		-52.39353	
40.23716	3176.356		-52.34166	
40.29127	3173.536		-52.29224	
40.34538	3170.681		-52.24525	
40.39948	3167.803		-52.20066	
40.45359	3164.916		-52.15845	
40.5077	3162.03		-52.11859	
40.56181	3159.149		-52.08103	
40.61592	3156.271		-52.0457	
40.67002	3153.388		-52.01249	
40.72414	3150.5		-51.98121	
40.77824	3147.602		-51.95169	
40.83235	3144.695		-51.92369	
40.88646	3141.784		-51.89696	
40.94057	3138.876		-51.87124	
40.99468	3135.981		-51.84623	
41.04879	3133.108		-51.82158	
41.10289	3130.26		-51.79695	
41.157	3127.44		-51.77195	
41.21111	3124.652		-51.74624	
41.26522	3121.896		-51.7195	
41.31933	3119.168		-51.69146	
41.37344	3116.463		-51.66193	
41.42754	3113.764		-51.63077	
41.48165	3111.057		-51.59791	
41.53576	3108.329		-51.56338	
41.58987	3105.584		-51.52724	
41.64398	3102.831		-51.48962	
41.69809	3100.07		-51.45071	
41.75219	3097.29		-51.41074	
41.8063	3094.481		-51.37005	
41.86041	3091.633		-51.32905	
41.91452	3088.742		-51.28815	
41.96863	3085.813		-51.24778	
42.02274	3082.86		-51.20833	
42.07684	3079.904		-51.17014	
42.13095	3076.963		-51.1335	
42.18506	3074.042		-51.09864	
42.23917	3071.135		-51.0657	
42.29328	3068.237		-51.03474	
42.34739	3065.339		-51.00574	
42.4015	3062.437		-50.97857	
42.4556	3059.536		-50.95308	
42.50971	3056.652		-50.92904	
42.56382	3053.803		-50.9062	
42.61793	3050.994		-50.88429	
42.67204	3048.223		-50.86303	
42.72615	3045.486		-50.84212	
42.78025	3042.784		-50.82121	
42.83436	3040.115		-50.79997	
42.88847	3037.484		-50.77803	
42.94258	3034.89		-50.75507	
42.99669	3032.338		-50.73078	
43.0508	3029.828		-50.70488	
43.1049	3027.35		-50.67709	
43.15901	3024.89		-50.6472	
43.21312	3022.435		-50.61501	
43.26723	3019.979		-50.58039	
43.32134	3017.518		-50.5433	
43.37545	3015.051		-50.50375	
43.42955	3012.578		-50.46189	
43.48367	3010.088		-50.41799	
43.53777	3007.569		-50.3724	
43.59188	3005.012		-50.32553	
43.64599	3002.415		-50.27787	
43.7001	2999.774		-50.23	
43.7542	2997.088		-50.18255	
43.80832	2994.356		-50.13619	
43.86242	2991.579		-50.09165	
43.91653	2988.753		-50.04959	
43.97064	2985.877		-50.01067	
44.02475	2982.951		-49.97543	
44.07886	2979.985		-49.94435	
44.13297	2976.994		-49.91778	
44.18707	2973.999		-49.89599	
44.24118	2971.012		-49.87911	
44.29529	2968.043		-49.8671	
44.3494	2965.093		-49.85978	
44.40351	2962.161		-49.85689	
44.45761	2959.246		-49.85805	
44.51172	2956.357		-49.8628	
44.56583	2953.505		-49.87064	
44.61994	2950.695		-49.88096	
44.67405	2947.933		-49.89311	
44.72816	2945.216		-49.90637	
44.78226	2942.535		-49.91994	
44.83637	2939.881		-49.93303	
44.89048	2937.247		-49.94482	
44.94459	2934.634		-49.95455	
44.9987	2932.046		-49.96152	
45.05281	2929.485		-49.96511	
45.10691	2926.946		-49.96473	
45.16103	2924.423		-49.95987	
45.21513	2921.909		-49.95007	
45.26924	2919.396		-49.93493	
45.32335	2916.877		-49.91419	
45.37746	2914.352		-49.88768	
45.43157	2911.817		-49.85543	
45.48568	2909.27		-49.81759	
45.53978	2906.706		-49.77447	
45.59389	2904.119		-49.72649	
45.648	2901.509		-49.67421	
45.70211	2898.875		-49.61827	
45.75622	2896.219		-49.55941	
45.81033	2893.542		-49.49842	
45.86443	2890.846		-49.43614	
45.91854	2888.133		-49.37339	
45.97265	2885.392		-49.31102	
46.02676	2882.616		-49.24981	
46.08087	2879.805		-49.19049	
46.13498	2876.972		-49.13372	
46.18908	2874.128		-49.08002	
46.24319	2871.278		-49.02978	
46.2973	2868.428		-48.98325	
46.35141	2865.587		-48.94051	
46.40552	2862.759		-48.90157	
46.45963	2859.949		-48.86631	
46.51373	2857.165		-48.83453	
46.56784	2854.413		-48.80592	
46.62195	2851.699		-48.78014	
46.67606	2849.021		-48.75677	
46.73017	2846.377		-48.73539	
46.78428	2843.761		-48.71553	
46.83839	2841.167		-48.69672	
46.89249	2838.588		-48.67847	
46.9466	2836.015		-48.66035	
47.00071	2833.444		-48.64194	
47.05482	2830.874		-48.62291	
47.10893	2828.307		-48.60292	
47.16304	2825.749		-48.58168	
47.21714	2823.205		-48.55891	
47.27125	2820.683		-48.53437	
47.32536	2818.188		-48.50787	
47.37947	2815.723		-48.47931	
47.43358	2813.283		-48.44865	
47.48769	2810.858		-48.41599	
47.54179	2808.429		-48.38142	
47.5959	2805.984		-48.34515	
47.65001	2803.518		-48.30737	
47.70412	2801.026		-48.26837	
47.75823	2798.501		-48.22845	
47.81234	2795.937		-48.18793	
47.86644	2793.334		-48.1472	
47.92056	2790.694		-48.10662	
47.97466	2788.011		-48.06662	
48.02877	2785.291		-48.02755	
48.08288	2782.546		-47.98974	
48.13699	2779.795		-47.95349	
48.1911	2777.05		-47.91898	
48.2452	2774.318		-47.88636	
48.29931	2771.607		-47.85565	
48.35342	2768.917		-47.82681	
48.40753	2766.248		-47.79971	
48.46164	2763.601		-47.77418	
48.51575	2760.973		-47.75002	
48.56985	2758.357		-47.72694	
48.62396	2755.746		-47.70467	
48.67807	2753.136		-47.68291	
48.73218	2750.529		-47.66141	
48.78629	2747.935		-47.63988	
48.8404	2745.369		-47.61803	
48.8945	2742.839		-47.5956	
48.94861	2740.342		-47.57236	
49.00272	2737.874		-47.54813	
49.05683	2735.424		-47.52277	
49.11094	2732.986		-47.4962	
49.16505	2730.545		-47.46836	
49.21915	2728.089		-47.43921	
49.27326	2725.605		-47.40873	
49.32737	2723.086		-47.37694	
49.38148	2720.539		-47.3439	
49.43559	2717.97		-47.30969	
49.4897	2715.384		-47.27441	
49.5438	2712.777		-47.23817	
49.59792	2710.148		-47.20108	
49.65202	2707.503		-47.16327	
49.70613	2704.852		-47.12492	
49.76024	2702.203		-47.08621	
49.81435	2699.563		-47.04735	
49.86846	2696.936		-47.00858	
49.92257	2694.319		-46.97015	
49.97667	2691.704		-46.9323	
50.03078	2689.087		-46.89526	
50.08489	2686.469		-46.85923	
50.139	2683.848		-46.82434	
50.19311	2681.221		-46.79074	
50.24722	2678.594		-46.75852	
50.30132	2675.977		-46.72775	
50.35543	2673.383		-46.69846	
50.40954	2670.828		-46.67067	
50.46365	2668.323		-46.64439	
50.51776	2665.872		-46.61961	
50.57187	2663.471		-46.59633	
50.62597	2661.111		-46.57456	
50.68008	2658.78		-46.55428	
50.73419	2656.469		-46.53545	
50.7883	2654.166		-46.51805	
50.84241	2651.86		-46.50199	
50.89651	2649.536		-46.48722	
50.95063	2647.177		-46.47369	
51.00473	2644.764		-46.46134	
51.05884	2642.295		-46.45012	
51.11295	2639.777		-46.43998	
51.16706	2637.225		-46.43087	
51.22117	2634.656		-46.42276	
51.27528	2632.081		-46.41563	
51.32938	2629.512		-46.40947	
51.38349	2626.962		-46.40424	
51.4376	2624.436		-46.39987	
51.49171	2621.936		-46.39623	
51.54582	2619.453		-46.39316	
51.59993	2616.976		-46.39045	
51.65403	2614.496		-46.38787	
51.70814	2612.008		-46.38518	
51.76225	2609.509		-46.38211	
51.81636	2606.998		-46.37843	
51.87047	2604.47		-46.37387	
51.92458	2601.922		-46.36821	
51.97868	2599.354		-46.36122	
52.03279	2596.778		-46.35264	
52.0869	2594.209		-46.34222	
52.14101	2591.659		-46.32972	
52.19512	2589.136		-46.31488	
52.24923	2586.644		-46.29748	
52.30333	2584.181		-46.27731	
52.35744	2581.739		-46.25417	
52.41155	2579.306		-46.22789	
52.46566	2576.871		-46.19834	
52.51977	2574.425		-46.16542	
52.57388	2571.964		-46.12907	
52.62799	2569.481		-46.0893	
52.68209	2566.974		-46.04617	
52.7362	2564.441		-45.99979	
52.79031	2561.887		-45.95033	
52.84442	2559.32		-45.89802	
52.89853	2556.748		-45.84315	
52.95264	2554.173		-45.78604	
53.00674	2551.596		-45.72702	
53.06085	2549.014		-45.66641	
53.11496	2546.421		-45.60453	
53.16907	2543.815		-45.54167	
53.22318	2541.196		-45.47815	
53.27729	2538.568		-45.41428	
53.33139	2535.935		-45.35031	
53.3855	2533.306		-45.28645	
53.43961	2530.689		-45.22286	
53.49372	2528.095		-45.1596	
53.54783	2525.524		-45.09666	
53.60194	2522.976		-45.03398	
53.65604	2520.446		-44.97146	
53.71016	2517.931		-44.90898	
53.76426	2515.434		-44.84639	
53.81837	2512.956		-44.78355	
53.87248	2510.505		-44.72032	
53.92659	2508.086		-44.65659	
53.9807	2505.707		-44.59224	
54.03481	2503.366		-44.52719	
54.08891	2501.062		-44.46133	
54.14302	2498.789		-44.39459	
54.19713	2496.543		-44.32695	
54.25124	2494.323		-44.25841	
54.30535	2492.129		-44.18902	
54.35946	2489.959		-44.11887	
54.41356	2487.801		-44.04806	
54.46767	2485.644		-43.97673	
54.52178	2483.481		-43.90502	
54.57589	2481.311		-43.83313	
54.63	2479.129		-43.76133	
54.6841	2476.927		-43.6899	
54.73821	2474.704		-43.61922	
54.79232	2472.46		-43.54972	
54.84643	2470.2		-43.48184	
54.90054	2467.925		-43.41612	
54.95465	2465.632		-43.35305	
55.00875	2463.318		-43.29315	
55.06286	2460.981		-43.2369	
55.11697	2458.617		-43.18473	
55.17108	2456.229		-43.13705	
55.22519	2453.815		-43.09415	
55.2793	2451.375		-43.05627	
55.3334	2448.912		-43.02348	
55.38752	2446.425		-42.99577	
55.44162	2443.923		-42.97296	
55.49573	2441.423		-42.95475	
55.54984	2438.944		-42.9407	
55.60395	2436.502		-42.9303	
55.65806	2434.113		-42.92298	
55.71217	2431.775		-42.91816	
55.76627	2429.48		-42.91523	
55.82038	2427.215		-42.91359	
55.87449	2424.963		-42.91259	
55.9286	2422.712		-42.91164	
55.98271	2420.458		-42.91009	
56.03682	2418.197		-42.90733	
56.09092	2415.933		-42.90278	
56.14503	2413.666		-42.89589	
56.19914	2411.398		-42.88615	
56.25325	2409.134		-42.87312	
