T[Â°C]	330nm [counts / mm]	S.D.
20.00061	4984.195	
20.00066	4996.04	
20.00516	4995.002	
20.0058	4987.843	
20.0202	4984.604	
20.02149	4987.686	
20.04811	4975.933	
20.04988	4986.385	
20.08172	4961.674	
20.0842	4963.528	
20.1262	4975.085	
20.12914	4973.117	
20.17649	4970.588	
20.17976	4969.481	
20.23616	4957.408	
20.2399	4969.266	
20.30325	4961.262	
20.3073	4957.174	
20.37629	4942.889	
20.38078	4955.728	
20.45511	4952.392	
20.45987	4937.728	
20.54377	4943.63	
20.54904	4946.403	
20.63371	4931.839	
20.63935	4928.852	
20.72895	4916.678	
20.73438	4929.404	
20.8311	4917.07	
20.8371	4910.562	
20.93508	4917.632	
20.94102	4908.369	
21.03931	4907.794	
21.04519	4904.89	
21.14866	4904.265	
21.15499	4906.011	
21.25803	4899.197	
21.26447	4888.99	
21.36605	4887.256	
21.3724	4873.936	
21.47868	4883.51	
21.48517	4880.298	
21.58606	4865.526	
21.59252	4864.879	
21.69515	4852.308	
21.70434	4850.936	
21.80618	4852.892	
21.81251	4847.572	
21.91238	4841.088	
21.91845	4836.069	
22.02484	4831.442	
22.03129	4834.439	
22.13504	4834.279	
22.14114	4818.838	
22.24479	4813.93	
22.25116	4814.756	
22.35313	4804.09	
22.35947	4820.926	
22.46397	4798.023	
22.47135	4815.544	
22.57006	4799.869	
22.57631	4807.502	
22.68105	4798.085	
22.68722	4801.598	
22.79001	4783.155	
22.79618	4785.446	
22.89953	4782.52	
22.9059	4776.848	
23.01093	4768.966	
23.01736	4777.797	
23.11892	4761.178	
23.12482	4762.481	
23.22906	4752.989	
23.23601	4755.868	
23.3404	4742.339	
23.3464	4746.92	
23.44718	4743.328	
23.45373	4741.226	
23.55787	4736.507	
23.56395	4746.925	
23.66581	4723.2	
23.6721	4731.586	
23.77788	4718.909	
23.78464	4725.062	
23.88601	4711.188	
23.89264	4710.06	
23.99478	4714.473	
24.00295	4696.39	
24.10591	4694.082	
24.1119	4701.313	
24.21181	4687.154	
24.21803	4681.049	
24.32254	4677.672	
24.32885	4679.542	
24.4332	4679.327	
24.43948	4674.72	
24.54265	4674.402	
24.54902	4672.336	
24.65088	4666.632	
24.65741	4663.804	
24.76258	4657.549	
24.76905	4663.403	
24.87221	4629.815	
24.87889	4648.82	
24.97975	4636.181	
24.9871	4638.431	
25.08865	4633.903	
25.09673	4637.921	
25.19848	4627.039	
25.20815	4625.435	
25.30761	4615.916	
25.31416	4603.173	
25.41722	4608.235	
25.42613	4600.02	
25.5279	4589.769	
25.53443	4603.282	
25.63694	4597.635	
25.64476	4603.886	
25.74615	4584.299	
25.7539	4593.355	
25.85687	4571.81	
25.86304	4580.227	
25.96567	4571.537	
25.97196	4565.015	
26.07452	4567.601	
26.0808	4559.704	
26.18366	4576.789	
26.19191	4554.666	
26.29482	4565.649	
26.30225	4558.237	
26.40484	4551.767	
26.41126	4563.293	
26.51101	4538.321	
26.51735	4543.172	
26.62555	4533.747	
26.63457	4534.851	
26.74158	4522.983	
26.74831	4527.991	
26.84803	4514.493	
26.85464	4504.514	
26.95828	4500.443	
26.9646	4499.205	
27.06869	4500.499	
27.07504	4492.776	
27.17675	4496.869	
27.18289	4498.1	
27.28568	4483.174	
27.29249	4493.75	
27.39587	4490.794	
27.4025	4474.316	
27.50559	4485.578	
27.51161	4473.951	
27.61605	4471.682	
27.62268	4462.484	
27.72684	4460.071	
27.73421	4461.557	
27.83318	4448.788	
27.84001	4460.653	
27.94301	4446.528	
27.94933	4444.089	
28.05427	4443.921	
28.06252	4442.772	
28.16283	4436.529	
28.16933	4442.01	
28.27151	4432.313	
28.27776	4426.891	
28.37855	4427.578	
28.38626	4409.748	
28.49268	4417.776	
28.49945	4411.262	
28.60055	4403.614	
28.60669	4400.917	
28.71022	4401.347	
28.71628	4404.25	
28.82046	4395.052	
28.8285	4388.542	
28.92921	4378.609	
28.93541	4374.703	
29.03776	4372.624	
29.04419	4364.351	
29.14885	4376.087	
29.15617	4374.91	
29.25729	4361.669	
29.26326	4379.025	
29.36536	4355.546	
29.37195	4355.564	
29.47683	4350.193	
29.48322	4349.306	
29.58773	4346.947	
29.59466	4350.023	
29.69579	4337.266	
29.70177	4338.08	
29.80368	4319.995	
29.81098	4335.615	
29.91441	4329.105	
29.92073	4313.704	
30.02225	4327.455	
30.02831	4315.35	
30.13298	4312.997	
30.13958	4323.509	
30.241	4304.079	
30.24724	4300.447	
30.34977	4292.868	
30.35611	4301.134	
30.4588	4286.763	
30.46667	4292.558	
30.5692	4278.371	
30.57553	4287.079	
30.68041	4274.299	
30.68789	4276.754	
30.78977	4273.561	
30.79639	4273.204	
30.89794	4258.281	
30.90601	4269.94	
31.00793	4262.762	
31.01429	4259.968	
31.11752	4252.094	
31.12695	4239.046	
31.23106	4240.592	
31.24019	4242.612	
31.34035	4247.823	
31.34921	4229.755	
31.45247	4227.935	
31.45858	4227.12	
31.56062	4214.801	
31.56691	4219.516	
31.67428	4209.337	
31.68083	4206.107	
31.78182	4211.58	
31.78959	4210.705	
31.89042	4216.051	
31.89686	4193.872	
32.00164	4193.247	
32.00832	4192.936	
32.11406	4192.987	
32.12153	4180.951	
32.22541	4178.053	
32.23131	4176.818	
32.33141	4183.032	
32.33918	4177.546	
32.44299	4171.973	
32.44952	4160.178	
32.55098	4155.321	
32.55934	4162.838	
32.66135	4141.84	
32.66793	4153.871	
32.77229	4147.114	
32.78127	4141.771	
32.88492	4146.378	
32.89239	4152.515	
32.99155	4139.704	
32.99917	4130.381	
33.1003	4122.082	
33.10663	4131.373	
33.21302	4121.48	
33.22165	4120.189	
33.32382	4119.987	
33.33033	4103.9	
33.43066	4122.121	
33.43975	4107.829	
33.54278	4111.556	
33.54972	4119.717	
33.6549	4105.776	
33.66316	4095.165	
33.76215	4090.55	
33.76821	4086.568	
33.87355	4075.23	
33.88074	4078.303	
33.98253	4084.145	
33.98861	4079.008	
34.09372	4077.224	
34.10004	4066.617	
34.20063	4068.043	
34.2068	4065.426	
34.311	4056.316	
34.31891	4048.017	
34.41986	4052.711	
34.42586	4049.929	
34.52876	4045.335	
34.53751	4043.692	
34.6353	4039.18	
34.64162	4039.18	
34.74748	4031.325	
34.75378	4028.561	
34.85747	4033.241	
34.86369	4013	
34.96676	4015.722	
34.97284	4019.241	
35.07455	4007.373	
35.08073	4005.767	
35.18472	4003.776	
35.1911	4014.803	
35.29883	4008.838	
35.30527	3996.807	
35.40696	4001.853	
35.41302	3980.593	
35.51721	3985.324	
35.52488	3984.743	
35.62729	3977.848	
35.63359	3975.136	
35.73805	3973.496	
35.7456	3971.402	
35.84627	3965.101	
35.85339	3955.753	
35.95431	3948.124	
35.96058	3960.612	
36.06414	3952.784	
36.07128	3950.139	
36.17246	3950.439	
36.17846	3942.376	
36.28038	3940.875	
36.2864	3940.789	
36.38973	3938.206	
36.40098	3937.228	
36.50392	3924.014	
36.51015	3925.708	
36.61324	3921.122	
36.61987	3913.041	
36.72042	3922.639	
36.72701	3928.346	
36.83178	3907.818	
36.83836	3919.739	
36.9394	3906.048	
36.94576	3911.408	
37.04969	3894.947	
37.05796	3906.846	
37.16007	3892.224	
37.16655	3900.485	
37.26876	3884.551	
37.27515	3877.596	
37.37911	3876.046	
37.38886	3876.23	
37.48949	3867.681	
37.49545	3867.324	
37.60621	3864.959	
37.61284	3868.929	
37.7141	3864.09	
37.72174	3866.766	
37.82095	3861.948	
37.82776	3847.099	
37.93661	3840.822	
37.94297	3845.787	
38.04618	3837.221	
38.05312	3841.299	
38.15414	3838.833	
38.16041	3838.517	
38.26536	3839.065	
38.27179	3823.471	
38.37304	3820.593	
38.3813	3826.618	
38.48435	3816.23	
38.49059	3810.875	
38.59164	3806.65	
38.59787	3805.704	
38.7028	3815.663	
38.70937	3783.714	
38.81098	3793.125	
38.81763	3789.525	
38.92258	3796.918	
38.92877	3780.369	
39.02997	3794.962	
39.03632	3783.028	
39.1396	3776.416	
39.14563	3772.589	
39.24805	3771.381	
39.25574	3769.316	
39.35705	3753.739	
39.36327	3758.018	
39.46821	3756.578	
39.47444	3747.083	
39.57737	3757.524	
39.5838	3750.115	
39.68832	3743.933	
39.69476	3750.307	
39.79693	3740.449	
39.80328	3743.194	
39.90663	3726.146	
39.9128	3733.188	
40.01441	3724.52	
40.024	3713.124	
40.12987	3730.327	
40.13582	3714.307	
40.24006	3725.269	
40.24636	3722.708	
40.35064	3722.315	
40.36044	3711.101	
40.46416	3706.772	
40.47043	3701.245	
40.57758	3687.964	
40.58417	3685.683	
40.68772	3693.453	
40.69655	3685.16	
40.80032	3690.892	
40.80709	3683.86	
40.90852	3688.003	
40.91463	3670.412	
41.0188	3667.953	
41.02735	3670.007	
41.13277	3668.039	
41.139	3664.222	
41.23887	3669.13	
41.24539	3667.77	
41.34977	3659.116	
41.35664	3654.433	
41.4598	3659.782	
41.46627	3642.579	
41.56986	3641.969	
41.57858	3641.902	
41.68206	3647.238	
41.69047	3633.325	
41.79148	3629.55	
41.79786	3625.659	
41.89987	3618.921	
41.90582	3626.468	
42.012	3624.983	
42.01836	3617.521	
42.1206	3614.86	
42.12731	3605.22	
42.22983	3610.23	
42.23816	3612.713	
42.33881	3603.935	
42.34554	3600.945	
42.44688	3591.82	
42.45316	3597.969	
42.55701	3588.088	
42.5635	3590.287	
42.66867	3581.066	
42.67487	3569.899	
42.77711	3579.664	
42.78377	3570.407	
42.88624	3564.269	
42.89276	3574.086	
42.99443	3570.944	
43.00089	3560.539	
43.10266	3562.551	
43.11087	3550.544	
43.2117	3551.848	
43.22005	3556.671	
43.32426	3546.33	
43.33094	3552.722	
43.43463	3541.958	
43.44042	3545.584	
43.54092	3546.332	
43.54756	3533.958	
43.65183	3530.915	
43.65821	3530.858	
43.76276	3527.415	
43.769	3522.937	
43.86998	3528.701	
43.87769	3526.871	
43.97976	3510.155	
43.98809	3525.013	
44.08858	3506.568	
44.09478	3504.16	
44.19907	3493.812	
44.20529	3505.561	
44.30853	3495.871	
44.31631	3492.736	
44.4186	3495.39	
44.42495	3479.23	
44.52802	3480.728	
44.53398	3485.381	
44.63679	3475.169	
44.64336	3477.809	
44.74451	3476.139	
44.75108	3458.194	
44.85378	3464.962	
44.8619	3453.311	
44.96433	3461.718	
44.97041	3453.327	
45.0735	3442.287	
45.07949	3457.584	
45.1832	3445.464	
45.18921	3445.186	
45.29444	3439.922	
45.30199	3435.304	
45.40348	3441.525	
45.41164	3446.24	
45.51209	3442.565	
45.51849	3427.353	
45.6213	3424.789	
45.62754	3420.276	
45.73067	3415.029	
45.73728	3423.637	
45.84072	3424.934	
45.84706	3410.522	
45.95001	3418.165	
45.95625	3405.139	
46.05921	3405.062	
46.06547	3410.301	
46.16853	3410.533	
46.17458	3397.909	
46.27739	3401.076	
46.28335	3385.465	
46.38585	3379.782	
46.3924	3385.298	
46.49529	3377.314	
46.50138	3379.965	
46.60438	3378.672	
46.61083	3376.613	
46.71712	3365.817	
46.72335	3371.781	
46.82454	3360.096	
46.83185	3349.678	
46.9345	3358.043	
46.94112	3355.4	
47.04447	3353.048	
47.05088	3346.89	
47.15402	3347.438	
47.16066	3344.865	
47.26124	3360.082	
47.26936	3338.604	
47.37183	3358.15	
47.3791	3335.008	
47.48126	3344.51	
47.48798	3340.102	
47.58994	3336.358	
47.59662	3322.403	
47.70195	3325.991	
47.70844	3317.526	
47.80941	3311.472	
47.81763	3300.653	
47.91924	3304.375	
47.92727	3304.208	
48.02842	3309.132	
48.03519	3305.995	
48.13779	3294.873	
48.1447	3291.966	
48.24788	3288.885	
48.25441	3291.347	
48.35691	3286.084	
48.36395	3291.176	
48.46539	3268.998	
48.47187	3282.376	
48.57575	3282.539	
48.5829	3275.589	
48.68552	3271.982	
48.69186	3266.146	
48.7925	3262.895	
48.79904	3261.93	
48.90359	3263.548	
48.90991	3256.583	
49.01394	3262.645	
49.02025	3250.248	
49.12312	3255.77	
49.12993	3243.714	
49.23327	3247.941	
49.2396	3242.286	
49.34314	3229.88	
49.34996	3227.287	
49.45104	3226.604	
49.45745	3236.511	
49.55997	3235.188	
49.56623	3227.604	
49.66944	3221.553	
49.67817	3224.216	
49.78061	3222.759	
49.78697	3209.739	
49.89077	3206.424	
49.89676	3208.749	
49.99953	3202.928	
50.00568	3205.501	
50.11032	3203.337	
50.11674	3188.919	
50.2177	3185.671	
50.2241	3193.715	
50.32924	3190.582	
50.33554	3188.93	
50.43721	3200.463	
50.44348	3174.648	
50.54685	3180.224	
50.55312	3181.796	
50.65765	3173.48	
50.66459	3170.773	
50.76563	3165.379	
50.77213	3168.297	
50.87762	3155.51	
50.88417	3157.3	
50.98654	3170.193	
50.99274	3145.557	
51.09422	3155.978	
51.10147	3144.674	
51.20528	3155.709	
51.21157	3150.168	
51.31585	3148.439	
51.32186	3144.225	
51.42443	3131.978	
51.43103	3132.099	
51.53167	3132.778	
51.5376	3134.952	
51.6433	3127.406	
51.64971	3125.559	
51.75331	3122.399	
51.75959	3113.599	
51.86324	3112.795	
51.87042	3114.079	
51.97248	3103.107	
51.97829	3102.39	
52.08071	3112.664	
52.08709	3107.334	
52.18941	3100.527	
52.19577	3092.71	
52.30511	3098.427	
52.31118	3088.828	
52.41617	3081.33	
52.4222	3090.69	
52.52359	3082.866	
52.53268	3079.598	
52.64057	3084.086	
52.64703	3081.619	
52.74889	3081.807	
52.75748	3074.6	
52.86086	3074.439	
52.86721	3062.844	
52.9705	3058.215	
52.9768	3056.867	
53.08102	3059.544	
53.08735	3048.881	
53.19359	3053.591	
53.1998	3043.896	
53.30725	3051.836	
53.31393	3046.927	
53.41555	3051.619	
53.4219	3043.143	
53.52577	3032.409	
53.53305	3036.138	
53.63527	3033.659	
53.64146	3019.209	
53.74876	3025.735	
53.75516	3021.094	
53.86334	3016.934	
53.87062	3016.398	
53.96994	3003.194	
53.97614	3008.121	
54.08206	3013.435	
54.09232	3001.052	
54.19558	3004.275	
54.20477	3001.497	
54.30878	2999.718	
54.31744	3009.741	
54.41784	2998.402	
54.42889	2994.199	
54.53166	2986.155	
54.53823	2986.536	
54.64079	2989.399	
54.64699	2992.181	
54.74992	2985.361	
54.75835	2985.877	
54.85947	2980.356	
54.866	2976.235	
54.97015	2981.247	
54.97632	2973.481	
55.07837	2959.743	
55.08629	2953.063	
55.18848	2965.109	
55.19618	2954.12	
55.29941	2954.533	
55.3073	2956.417	
55.40553	2957.261	
55.41184	2950.517	
55.51696	2945.027	
55.52362	2940.873	
55.62656	2945.458	
55.63311	2937.357	
55.73631	2935.33	
55.74561	2925.557	
55.8487	2932.858	
55.85811	2928.369	
55.96067	2921.578	
55.96735	2925.463	
56.07693	2917.874	
56.08307	2921.643	
56.18825	2918.494	
56.19475	2920.41	
56.29789	2911.045	
56.30406	2903.841	
56.40992	2906.383	
56.41629	2900.493	
56.52626	2905.343	
56.53233	2905.434	
56.63447	2891.81	
56.64315	2891.131	
56.74541	2893.816	
56.75367	2884.911	
56.85597	2881.504	
56.86248	2882.039	
56.96776	2882.75	
56.97387	2875.563	
57.0773	2876.129	
57.08348	2872.133	
57.18695	2879.069	
57.19613	2866.165	
57.29871	2865.578	
57.30775	2867.793	
57.41272	2862.194	
57.41974	2850.218	
57.52032	2857.324	
57.52658	2853.432	
57.63116	2854.75	
57.63726	2848.223	
57.73996	2847.038	
57.74623	2843.046	
57.84986	2845.751	
57.85855	2843.165	
57.96335	2841.298	
57.96959	2832.447	
58.07569	2831.165	
58.08214	2825.82	
58.18796	2830.463	
58.19541	2819.51	
58.29647	2826.953	
58.30445	2823.022	
58.40611	2817.319	
58.41244	2817.456	
58.5139	2814.765	
58.52065	2818.038	
58.62479	2814.106	
58.6314	2811.503	
58.73627	2807.143	
58.74253	2805.793	
58.84356	2797.2	
58.84987	2806.352	
58.9529	2792.884	
58.95958	2793.087	
59.06417	2797.549	
59.07038	2785.742	
59.17154	2792.179	
59.17802	2775.698	
59.28154	2784.613	
59.28827	2784.702	
59.3915	2782.087	
59.39765	2771.137	
59.49748	2770.425	
59.50696	2771.477	
59.61255	2763.145	
59.61899	2764.909	
59.71953	2763.15	
59.72581	2759.886	
59.82983	2754.368	
59.83628	2761.849	
59.9399	2755.724	
59.94619	2747.409	
60.04731	2758.001	
60.0548	2736.22	
60.15636	2747.576	
60.16298	2740.252	
60.26743	2740.6	
60.27374	2735.457	
60.37606	2738.073	
60.38289	2730.654	
60.48601	2737.961	
60.49266	2731.626	
60.59567	2716.677	
60.60184	2730.613	
60.7068	2720.371	
60.71344	2722.921	
60.81581	2713.897	
60.82239	2712.041	
60.92462	2718.18	
60.93121	2707.195	
61.03325	2705.388	
61.0396	2697.653	
61.14497	2703.376	
61.1515	2698.583	
61.25251	2701.526	
61.25928	2691.336	
61.36383	2693.304	
61.37086	2694.724	
61.47043	2686.104	
61.47749	2694.76	
61.58463	2679.037	
61.59061	2677.343	
61.69206	2683.714	
61.6989	2679.699	
61.79966	2669.759	
61.80597	2669.613	
61.91352	2670.75	
61.92004	2669.644	
62.0212	2658.101	
62.02839	2659.638	
62.12948	2666.247	
62.1357	2660.237	
62.23888	2668.805	
62.24489	2657.239	
62.35483	2660.143	
62.36127	2657.048	
62.46253	2657.657	
62.46885	2654.895	
62.57076	2654.117	
62.57727	2647.5	
62.68159	2650.028	
62.68825	2638.319	
62.79207	2632.94	
62.79901	2635.225	
62.90113	2635.292	
62.90778	2632.054	
63.01095	2631.611	
63.01837	2624.154	
63.12092	2621.453	
63.12757	2626.004	
63.22988	2619.959	
63.23619	2611.77	
63.34231	2615.875	
63.349	2612.018	
63.45264	2620.413	
63.46071	2612.821	
63.56169	2611.736	
63.56786	2609.102	
63.6709	2612.179	
63.67881	2600.447	
63.78271	2591.301	
63.78912	2598.949	
63.89209	2603.871	
63.89936	2606.234	
63.99908	2594.737	
64.00555	2600.429	
64.10984	2594.74	
64.11883	2583.316	
64.22428	2584.507	
64.23062	2582.883	
64.33198	2592.084	
64.33839	2583.85	
64.44199	2582.482	
64.44828	2581.691	
64.55041	2585.552	
64.55653	2571.513	
64.66045	2580.344	
64.66988	2569.354	
64.77478	2574.024	
64.78075	2568.753	
64.88629	2579.785	
64.89421	2563.636	
64.99696	2570.087	
65.00578	2560.48	
65.11049	2568.81	
65.11672	2564.644	
65.22031	2566.642	
65.22961	2561.517	
65.33428	2561.335	
65.3426	2562.879	
65.44382	2568.359	
65.44995	2559.742	
65.55202	2567.62	
65.56146	2556.323	
65.66811	2558.61	
65.6765	2553.745	
65.77732	2561.727	
65.78367	2561.15	
65.89154	2566.404	
65.89835	2554.272	
66.00198	2566.505	
66.00806	2561.593	
66.11688	2570.224	
66.12319	2568.834	
66.22433	2569.749	
66.23143	2570.545	
66.33455	2570.477	
66.34116	2566.192	
66.44463	2569.692	
66.45088	2569.87	
66.55211	2573.344	
66.55899	2565.377	
66.66324	2566.021	
66.67131	2567.169	
66.77308	2578.395	
66.78221	2578.963	
66.88401	2591.56	
66.89039	2590.109	
66.99949	2597.762	
67.01162	2591.097	
67.1117	2602.084	
67.11903	2591.06	
67.22601	2599.591	
67.2329	2598.053	
67.33826	2615.308	
67.34486	2611.886	
67.45044	2629.251	
67.46034	2618.887	
67.56209	2628.674	
67.56837	2622.31	
67.67519	2635.506	
67.68237	2639.331	
67.78636	2650.927	
67.79543	2652.224	
67.89744	2666.194	
67.90377	2665.45	
68.01256	2682.069	
68.01946	2678.284	
68.11867	2698.504	
68.12807	2692.967	
68.2346	2707.711	
68.24099	2707.342	
68.34289	2730.2	
68.34948	2729.756	
68.45743	2748.621	
68.46362	2743.686	
68.56666	2767.31	
68.57578	2768.632	
68.68108	2789.451	
68.68831	2791	
68.79202	2814.321	
68.79838	2809.518	
68.90634	2834.496	
68.91446	2835.221	
69.01503	2871.62	
69.02129	2864.171	
69.12383	2903.738	
69.13273	2885.651	
69.23667	2921.39	
69.24283	2925.989	
69.34929	2956.447	
69.3589	2950.099	
69.46104	2981.924	
69.46767	2990.157	
69.5684	3024.216	
69.57471	3021.057	
69.67946	3066.38	
69.68586	3067.244	
69.78783	3105.579	
69.79626	3098.01	
69.89936	3136.132	
69.90611	3139.173	
70.0082	3192.011	
70.01655	3192.817	
70.11913	3240.777	
70.12685	3231.884	
70.22778	3278.656	
70.23758	3276.923	
70.34101	3339.688	
70.34962	3334.979	
70.45355	3394.343	
70.45963	3396.481	
70.56382	3444.09	
70.57263	3447.569	
70.67553	3508.735	
70.68484	3505.191	
70.79025	3556.111	
70.79951	3571.947	
70.90379	3619.796	
70.91006	3627.833	
71.01795	3679.363	
71.02594	3688.137	
71.1251	3750.572	
71.13346	3753.67	
71.23938	3818.631	
71.2489	3816.882	
71.35332	3895.173	
71.3598	3883.135	
71.46638	3961.48	
71.47397	3962.674	
71.57391	4021.75	
71.583	4037.565	
71.68954	4097.646	
71.69746	4125.818	
71.79859	4184.874	
71.80489	4198.2	
71.91077	4284.009	
71.91953	4268.429	
72.02386	4346.123	
72.03049	4362.54	
72.13493	4447.184	
72.14423	4441.813	
72.24754	4538.406	
72.25393	4529.672	
72.3548	4601.291	
72.36446	4607.367	
72.46983	4705.702	
72.4764	4688.389	
72.57965	4759.975	
72.58899	4758.327	
72.69141	4838.016	
72.69769	4827.44	
72.80294	4887.671	
72.81284	4899.936	
72.91514	4949.432	
72.92135	4948.008	
73.02434	5021.547	
73.03349	5010.086	
73.13747	5074.61	
73.14362	5064.641	
73.24963	5118.649	
73.25886	5106.912	
73.36023	5159.698	
73.36652	5146.831	
73.46986	5198.255	
73.47938	5195.296	
73.58276	5230.958	
73.58888	5211.472	
73.69312	5252.516	
73.69952	5243.988	
73.8055	5282.406	
73.81419	5270.631	
73.91726	5305.234	
73.92424	5292.602	
74.02564	5316.803	
74.03512	5319.485	
74.13934	5349.605	
74.14577	5342.009	
74.24876	5361.995	
74.25529	5353.734	
74.3612	5383.196	
74.36841	5376.614	
74.47128	5396.406	
74.47755	5388.628	
74.58106	5413.817	
74.58719	5397.385	
74.69293	5413.109	
74.69929	5400.676	
74.80338	5439.195	
74.80989	5427.419	
74.91648	5463.121	
74.9267	5439.181	
75.02936	5474.743	
75.03577	5460.783	
75.13966	5486.805	
75.14629	5465.857	
75.24815	5495.821	
75.25761	5482.447	
75.36016	5493.666	
75.36649	5492.782	
75.47226	5488.846	
75.48196	5488.96	
75.58501	5495.117	
75.59153	5503.439	
75.69447	5517.644	
75.70111	5506.146	
75.80643	5529.046	
75.81617	5511.971	
75.92241	5536.422	
75.92887	5515.314	
76.03115	5519.016	
76.03773	5519.204	
76.14239	5544.89	
76.15182	5535.987	
76.25768	5556.596	
76.26418	5542.16	
76.36736	5554.732	
76.37329	5553.508	
76.47826	5560.949	
76.48498	5560.742	
76.58958	5584.561	
76.59893	5563.533	
76.70335	5586.442	
76.70952	5572.086	
76.81418	5589.589	
76.82021	5573.315	
76.92453	5585.995	
76.93424	5575.107	
77.03648	5602.464	
77.04294	5584.994	
77.14541	5599.969	
77.15152	5585.374	
77.25613	5601.143	
77.26276	5584.535	
77.3662	5602.898	
77.37244	5605.151	
77.47778	5604.967	
77.48449	5583.248	
77.58816	5612.244	
77.59443	5600.535	
77.70081	5621.708	
77.70971	5588.054	
77.81355	5630.935	
77.82001	5599.25	
