T[Â°C]	330nm [counts / mm]	S.D.	First derivative	S.D. of first derivative
19.99998	8091.989		-111.908	
20.05396	8085.371		-111.8228	
20.10795	8078.763		-111.7392	
20.16194	8072.167		-111.6572	
20.21592	8065.583		-111.5768	
20.26991	8059.011		-111.498	
20.32389	8052.453		-111.4209	
20.37788	8045.906		-111.3455	
20.43187	8039.371		-111.2717	
20.48586	8032.848		-111.1996	
20.53984	8026.335		-111.1291	
20.59383	8019.831		-111.0601	
20.64781	8013.334		-110.9927	
20.7018	8006.844		-110.9267	
20.75579	8000.355		-110.8622	
20.80977	7993.866		-110.799	
20.86376	7987.376		-110.7371	
20.91775	7980.893		-110.6763	
20.97173	7974.453		-110.6165	
21.02572	7968.286		-110.5576	
21.0797	7962.191		-110.4995	
21.13369	7956.178		-110.442	
21.18768	7950.259		-110.385	
21.24166	7944.446		-110.3282	
21.29565	7938.742		-110.2715	
21.34964	7933.147		-110.2147	
21.40362	7927.656		-110.1576	
21.45761	7922.261		-110.0999	
21.51159	7916.951		-110.0417	
21.56558	7911.708		-109.9825	
21.61957	7906.505		-109.9224	
21.67355	7901.322		-109.861	
21.72754	7896.138		-109.7983	
21.78153	7890.923		-109.7342	
21.83551	7885.646		-109.6684	
21.8895	7880.282		-109.601	
21.94349	7874.831		-109.5318	
21.99747	7869.299		-109.4609	
22.05146	7863.691		-109.3882	
22.10544	7858.008		-109.3138	
22.15943	7852.251		-109.2378	
22.21342	7846.426		-109.1607	
22.2674	7840.532		-109.0827	
22.32139	7834.565		-109.0049	
22.37538	7828.515		-108.9284	
22.42936	7822.371		-108.855	
22.48335	7816.127		-108.7875	
22.53734	7809.783		-108.7295	
22.59132	7803.35		-108.685	
22.64531	7796.853		-108.6523	
22.6993	7790.332		-108.6225	
22.75328	7783.828		-108.5949	
22.80727	7777.377		-108.5691	
22.86125	7771.002		-108.5443	
22.91524	7764.713		-108.5201	
22.96923	7758.513		-108.4957	
23.02321	7752.406		-108.4705	
23.0772	7746.394		-108.4437	
23.13119	7740.471		-108.4144	
23.18517	7734.619		-108.3818	
23.23916	7728.816		-108.3451	
23.29314	7723.041		-108.3033	
23.34713	7717.27		-108.2556	
23.40112	7711.493		-108.201	
23.4551	7705.706		-108.1387	
23.50909	7699.91		-108.0679	
23.56308	7694.11		-107.988	
23.61706	7688.308		-107.8986	
23.67105	7682.507		-107.7994	
23.72503	7676.721		-107.6905	
23.77902	7670.958		-107.5723	
23.83301	7665.22		-107.4456	
23.887	7659.507		-107.311	
23.94098	7653.807		-107.1698	
23.99497	7648.095		-107.0231	
24.04895	7642.359		-106.8724	
24.10294	7636.586		-106.7192	
24.15693	7630.76		-106.5654	
24.21091	7624.878		-106.4126	
24.2649	7618.955		-106.2626	
24.31889	7613.006		-106.1169	
24.37287	7607.054		-105.9771	
24.42686	7601.126		-105.8444	
24.48084	7595.244		-105.72	
24.53483	7589.412		-105.6045	
24.58882	7583.625		-105.4987	
24.6428	7577.87		-105.4029	
24.69679	7572.143		-105.3173	
24.75078	7566.449		-105.242	
24.80476	7560.8		-105.1769	
24.85875	7555.202		-105.1221	
24.91273	7549.653		-105.0773	
24.96672	7544.151		-105.0422	
25.02071	7538.694		-105.0164	
25.07469	7533.281		-104.9992	
25.12868	7527.913		-104.99	
25.18267	7522.592		-104.988	
25.23665	7517.314		-104.9925	
25.29064	7512.069		-105.0025	
25.34463	7506.833		-105.0174	
25.39861	7501.58		-105.0361	
25.4526	7496.293		-105.0578	
25.50659	7490.975		-105.0814	
25.56057	7485.653		-105.1059	
25.61456	7480.348		-105.1305	
25.66854	7475.067		-105.154	
25.72253	7469.802		-105.1759	
25.77652	7464.526		-105.1952	
25.8305	7459.22		-105.2116	
25.88449	7453.868		-105.2244	
25.93848	7448.448		-105.2334	
25.99246	7442.949		-105.2381	
26.04645	7437.374		-105.2385	
26.10044	7431.724		-105.2344	
26.15442	7425.993		-105.2259	
26.20841	7420.168		-105.213	
26.26239	7414.229		-105.1959	
26.31638	7408.167		-105.1748	
26.37037	7401.993		-105.1498	
26.42435	7395.75		-105.1209	
26.47834	7389.494		-105.0885	
26.53233	7383.271		-105.0524	
26.58631	7377.104		-105.0127	
26.6403	7370.995		-104.9694	
26.69428	7364.937		-104.9224	
26.74827	7358.926		-104.8716	
26.80226	7352.955		-104.817	
26.85624	7347.012		-104.7584	
26.91023	7341.095		-104.696	
26.96422	7335.21		-104.6296	
27.0182	7329.354		-104.5595	
27.07219	7323.519		-104.4856	
27.12617	7317.698		-104.4079	
27.18016	7311.886		-104.3264	
27.23415	7306.094		-104.2414	
27.28814	7300.326		-104.1529	
27.34212	7294.567		-104.0613	
27.39611	7288.792		-103.9668	
27.45009	7282.971		-103.8698	
27.50408	7277.104		-103.7707	
27.55807	7271.215		-103.6699	
27.61205	7265.34		-103.5678	
27.66604	7259.521		-103.4647	
27.72003	7253.785		-103.361	
27.77401	7248.144		-103.257	
27.828	7242.594		-103.1529	
27.88198	7237.117		-103.0491	
27.93597	7231.684		-102.9457	
27.98996	7226.276		-102.8431	
28.04394	7220.889		-102.7414	
28.09793	7215.535		-102.6412	
28.15192	7210.225		-102.5427	
28.2059	7204.964		-102.4463	
28.25989	7199.733		-102.3523	
28.31388	7194.504		-102.261	
28.36786	7189.262		-102.1729	
28.42185	7184.009		-102.0884	
28.47583	7178.765		-102.0078	
28.52982	7173.555		-101.9315	
28.58381	7168.398		-101.86	
28.63779	7163.311		-101.7936	
28.69178	7158.296		-101.7323	
28.74577	7153.35		-101.6762	
28.79975	7148.448		-101.6254	
28.85374	7143.554		-101.5798	
28.90773	7138.628		-101.5392	
28.96171	7133.635		-101.5038	
29.0157	7128.553		-101.4733	
29.06968	7123.374		-101.4477	
29.12367	7118.1		-101.4267	
29.17766	7112.745		-101.4098	
29.23164	7107.341		-101.3968	
29.28563	7101.906		-101.3873	
29.33962	7096.441		-101.3807	
29.3936	7090.938		-101.3767	
29.44759	7085.376		-101.3749	
29.50158	7079.744		-101.3748	
29.55556	7074.037		-101.3759	
29.60955	7068.265		-101.3778	
29.66353	7062.45		-101.3798	
29.71752	7056.624		-101.381	
29.77151	7050.818		-101.3804	
29.82549	7045.043		-101.3771	
29.87948	7039.289		-101.3698	
29.93347	7033.542		-101.3575	
29.98745	7027.784		-101.339	
30.04144	7021.997		-101.3133	
30.09542	7016.181		-101.2795	
30.14941	7010.346		-101.2369	
30.2034	7004.511		-101.185	
30.25739	6998.696		-101.1233	
30.31137	6992.92		-101.0513	
30.36536	6987.191		-100.9689	
30.41934	6981.517		-100.8758	
30.47333	6975.898		-100.7721	
30.52732	6970.327		-100.6579	
30.5813	6964.797		-100.5334	
30.63529	6959.3		-100.399	
30.68928	6953.832		-100.2551	
30.74326	6948.389		-100.1021	
30.79725	6942.97		-99.94037	
30.85123	6937.571		-99.77045	
30.90522	6932.169		-99.59285	
30.95921	6926.736		-99.40817	
31.01319	6921.25		-99.21712	
31.06718	6915.7		-99.02045	
31.12117	6910.095		-98.81896	
31.17515	6904.452		-98.61359	
31.22914	6898.792		-98.4053	
31.28312	6893.152		-98.19518	
31.33711	6887.573		-97.98439	
31.3911	6882.077		-97.77409	
31.44508	6876.672		-97.56551	
31.49907	6871.355		-97.35985	
31.55306	6866.113		-97.15829	
31.60704	6860.926		-96.9619	
31.66103	6855.782		-96.77153	
31.71502	6850.676		-96.58789	
31.769	6845.606		-96.41138	
31.82299	6840.57		-96.24228	
31.87697	6835.572		-96.08057	
31.93096	6830.623		-95.92609	
31.98495	6825.728		-95.77861	
32.03893	6820.886		-95.63787	
32.09292	6816.088		-95.50362	
32.14691	6811.325		-95.37573	
32.20089	6806.6		-95.2541	
32.25488	6801.92		-95.1388	
32.30886	6797.291		-95.02989	
32.36285	6792.703		-94.92755	
32.41684	6788.138		-94.83197	
32.47083	6783.57		-94.74338	
32.52481	6778.983		-94.66209	
32.5788	6774.359		-94.58847	
32.63278	6769.674		-94.523	
32.68677	6764.906		-94.46621	
32.74076	6760.047		-94.41863	
32.79474	6755.102		-94.38076	
32.84873	6750.086		-94.353	
32.90271	6745.016		-94.33564	
32.9567	6739.9		-94.3289	
33.01069	6734.751		-94.33287	
33.06467	6729.593		-94.34753	
33.11866	6724.437		-94.37273	
33.17265	6719.276		-94.40821	
33.22663	6714.098		-94.4536	
33.28062	6708.9		-94.50839	
33.33461	6703.687		-94.57198	
33.38859	6698.459		-94.64362	
33.44258	6693.223		-94.72248	
33.49657	6687.976		-94.80763	
33.55055	6682.717		-94.89812	
33.60454	6677.44		-94.99299	
33.65852	6672.147		-95.09126	
33.71251	6666.841		-95.1919	
33.7665	6661.516		-95.2939	
33.82048	6656.168		-95.39614	
33.87447	6650.805		-95.49749	
33.92846	6645.446		-95.59674	
33.98244	6640.106		-95.69263	
34.03643	6634.786		-95.78394	
34.09042	6629.485		-95.86945	
34.1444	6624.2		-95.94807	
34.19839	6618.941		-96.01883	
34.25237	6613.724		-96.0809	
34.30636	6608.557		-96.13363	
34.36035	6603.433		-96.17648	
34.41433	6598.343		-96.20908	
34.46832	6593.277		-96.23122	
34.5223	6588.224		-96.24285	
34.57629	6583.169		-96.24412	
34.63028	6578.098		-96.23543	
34.68427	6572.998		-96.21742	
34.73825	6567.861		-96.19099	
34.79224	6562.679		-96.15717	
34.84623	6557.45		-96.1171	
34.90021	6552.172		-96.07198	
34.9542	6546.853		-96.02302	
35.00818	6541.506		-95.97141	
35.06217	6536.15		-95.91822	
35.11616	6530.797		-95.86441	
35.17014	6525.441		-95.81069	
35.22413	6520.07		-95.75754	
35.27811	6514.676		-95.70519	
35.3321	6509.253		-95.65366	
35.38609	6503.808		-95.60275	
35.44007	6498.346		-95.55216	
35.49406	6492.872		-95.50146	
35.54805	6487.386		-95.45019	
35.60203	6481.898		-95.39788	
35.65602	6476.435		-95.3441	
35.71001	6471.026		-95.28847	
35.76399	6465.699		-95.23067	
35.81798	6460.475		-95.17052	
35.87196	6455.366		-95.10791	
35.92595	6450.377		-95.0428	
35.97994	6445.501		-94.97518	
36.03392	6440.722		-94.90501	
36.08791	6436.012		-94.83227	
36.1419	6431.343		-94.75687	
36.19588	6426.69		-94.67868	
36.24987	6422.035		-94.59761	
36.30386	6417.358		-94.5135	
36.35784	6412.645		-94.42622	
36.41183	6407.892		-94.33572	
36.46582	6403.104		-94.24201	
36.5198	6398.292		-94.14517	
36.57379	6393.465		-94.04535	
36.62777	6388.625		-93.94284	
36.68176	6383.764		-93.83812	
36.73575	6378.864		-93.73182	
36.78973	6373.905		-93.62473	
36.84372	6368.865		-93.51775	
36.89771	6363.726		-93.41177	
36.95169	6358.488		-93.3077	
37.00568	6353.166		-93.20642	
37.05967	6347.785		-93.10872	
37.11365	6342.373		-93.01517	
37.16764	6336.94		-92.92613	
37.22162	6331.49		-92.84176	
37.27561	6326.026		-92.76195	
37.3296	6320.565		-92.68642	
37.38358	6315.139		-92.61472	
37.43757	6309.769		-92.5463	
37.49155	6304.472		-92.48059	
37.54554	6299.25		-92.41694	
37.59953	6294.107		-92.35468	
37.65351	6289.051		-92.29308	
37.7075	6284.089		-92.23146	
37.76149	6279.222		-92.16917	
37.81548	6274.444		-92.10571	
37.86946	6269.742		-92.04079	
37.92345	6265.101		-91.97424	
37.97743	6260.498		-91.90606	
38.03142	6255.901		-91.83635	
38.08541	6251.282		-91.76527	
38.13939	6246.62		-91.69302	
38.19338	6241.906		-91.61986	
38.24736	6237.137		-91.546	
38.30135	6232.312		-91.47166	
38.35534	6227.421		-91.397	
38.40932	6222.468		-91.32217	
38.46331	6217.458		-91.24729	
38.5173	6212.41		-91.17247	
38.57128	6207.355		-91.0978	
38.62527	6202.319		-91.0234	
38.67926	6197.32		-90.94942	
38.73324	6192.375		-90.8761	
38.78723	6187.482		-90.80371	
38.84121	6182.623		-90.7326	
38.8952	6177.767		-90.66315	
38.94919	6172.877		-90.59571	
39.00317	6167.928		-90.53067	
39.05716	6162.917		-90.46837	
39.11115	6157.859		-90.40913	
39.16513	6152.767		-90.3532	
39.21912	6147.666		-90.30078	
39.27311	6142.573		-90.25196	
39.32709	6137.51		-90.20675	
39.38108	6132.508		-90.16508	
39.43507	6127.593		-90.1268	
39.48905	6122.783		-90.09174	
39.54304	6118.078		-90.0597	
39.59702	6113.464		-90.03034	
39.65101	6108.929		-90.00328	
39.705	6104.455		-89.97803	
39.75898	6100.024		-89.95409	
39.81297	6095.609		-89.93101	
39.86695	6091.184		-89.90837	
39.92094	6086.726		-89.88589	
39.97493	6082.21		-89.86336	
40.02892	6077.61		-89.84066	
40.0829	6072.901		-89.81778	
40.13689	6068.084		-89.79485	
40.19087	6063.183		-89.77215	
40.24486	6058.226		-89.75003	
40.29885	6053.242		-89.72891	
40.35283	6048.253		-89.70921	
40.40682	6043.268		-89.69128	
40.4608	6038.281		-89.67538	
40.51479	6033.281		-89.66165	
40.56878	6028.265		-89.65005	
40.62276	6023.227		-89.64041	
40.67675	6018.165		-89.63245	
40.73074	6013.083		-89.62581	
40.78473	6007.988		-89.61998	
40.83871	6002.896		-89.61442	
40.8927	5997.818		-89.6085	
40.94668	5992.764		-89.60157	
41.00067	5987.729		-89.59294	
41.05465	5982.723		-89.58193	
41.10864	5977.75		-89.5679	
41.16263	5972.821		-89.55028	
41.21661	5967.946		-89.52856	
41.2706	5963.126		-89.50228	
41.32458	5958.364		-89.47105	
41.37857	5953.658		-89.43448	
41.43256	5949.01		-89.3922	
41.48655	5944.421		-89.34389	
41.54053	5939.88		-89.28928	
41.59452	5935.372		-89.22816	
41.64851	5930.869		-89.16037	
41.70249	5926.347		-89.08578	
41.75648	5921.781		-89.00432	
41.81046	5917.155		-88.91599	
41.86445	5912.473		-88.82087	
41.91844	5907.742		-88.71915	
41.97242	5902.97		-88.61119	
42.02641	5898.147		-88.49742	
42.08039	5893.26		-88.37842	
42.13438	5888.304		-88.25489	
42.18837	5883.283		-88.12764	
42.24236	5878.212		-87.99765	
42.29634	5873.107		-87.86595	
42.35033	5867.987		-87.73364	
42.40431	5862.866		-87.60184	
42.4583	5857.761		-87.47158	
42.51229	5852.692		-87.34381	
42.56627	5847.671		-87.21931	
42.62026	5842.707		-87.0987	
42.67424	5837.799		-86.98252	
42.72823	5832.943		-86.87114	
42.78222	5828.132		-86.76487	
42.8362	5823.361		-86.66383	
42.89019	5818.627		-86.56806	
42.94418	5813.925		-86.47742	
42.99817	5809.257		-86.3917	
43.05215	5804.64		-86.3106	
43.10614	5800.086		-86.23381	
43.16012	5795.596		-86.16104	
43.21411	5791.153		-86.09205	
43.2681	5786.745		-86.0266	
43.32208	5782.358		-85.96456	
43.37607	5777.977		-85.9058	
43.43005	5773.586		-85.85023	
43.48404	5769.18		-85.79774	
43.53803	5764.768		-85.74821	
43.59201	5760.365		-85.70155	
43.646	5755.988		-85.65762	
43.69999	5751.635		-85.6163	
43.75397	5747.289		-85.5775	
43.80796	5742.933		-85.54109	
43.86195	5738.557		-85.50703	
43.91593	5734.152		-85.47528	
43.96992	5729.719		-85.44587	
44.0239	5725.26		-85.41885	
44.07789	5720.774		-85.39433	
44.13188	5716.265		-85.37238	
44.18586	5711.741		-85.35309	
44.23985	5707.211		-85.3365	
44.29383	5702.675		-85.32266	
44.34782	5698.125		-85.31161	
44.40181	5693.562		-85.30336	
44.4558	5688.985		-85.29784	
44.50978	5684.394		-85.29492	
44.56377	5679.786		-85.29436	
44.61776	5675.167		-85.29578	
44.67174	5670.546		-85.29877	
44.72573	5665.933		-85.30283	
44.77971	5661.338		-85.30742	
44.8337	5656.755		-85.31194	
44.88769	5652.162		-85.31571	
44.94167	5647.535		-85.31806	
44.99566	5642.856		-85.31822	
45.04964	5638.129		-85.31541	
45.10363	5633.368		-85.30892	
45.15762	5628.591		-85.29809	
45.21161	5623.824		-85.28233	
45.26559	5619.08		-85.26119	
45.31958	5614.363		-85.23431	
45.37356	5609.66		-85.20143	
45.42755	5604.955		-85.16241	
45.48154	5600.243		-85.11716	
45.53552	5595.522		-85.0657	
45.58951	5590.801		-85.00807	
45.64349	5586.082		-84.94443	
45.69748	5581.358		-84.87491	
45.75147	5576.621		-84.79974	
45.80545	5571.864		-84.71915	
45.85944	5567.083		-84.63346	
45.91343	5562.271		-84.54305	
45.96741	5557.432		-84.44832	
46.0214	5552.574		-84.34978	
46.07539	5547.716		-84.24799	
46.12937	5542.876		-84.14358	
46.18336	5538.077		-84.03716	
46.23735	5533.333		-83.92931	
46.29133	5528.65		-83.82059	
46.34532	5524.031		-83.71153	
46.3993	5519.469		-83.60258	
46.45329	5514.956		-83.49414	
46.50728	5510.476		-83.38654	
46.56126	5506.01		-83.28004	
46.61525	5501.539		-83.17477	
46.66924	5497.051		-83.07078	
46.72322	5492.556		-82.96799	
46.77721	5488.067		-82.86628	
46.8312	5483.602		-82.76545	
46.88518	5479.171		-82.66528	
46.93917	5474.782		-82.56553	
46.99315	5470.442		-82.46602	
47.04714	5466.153		-82.36659	
47.10113	5461.915		-82.26717	
47.15511	5457.73		-82.16782	
47.2091	5453.601		-82.06868	
47.26308	5449.526		-81.97004	
47.31707	5445.493		-81.87222	
47.37106	5441.479		-81.77562	
47.42505	5437.46		-81.68063	
47.47903	5433.412		-81.5877	
47.53302	5429.325		-81.49734	
47.58701	5425.204		-81.41013	
47.64099	5421.05		-81.32662	
47.69498	5416.862		-81.24741	
47.74896	5412.636		-81.17305	
47.80295	5408.378		-81.10403	
47.85694	5404.092		-81.0408	
47.91092	5399.785		-80.98381	
47.96491	5395.458		-80.93343	
48.01889	5391.116		-80.89005	
48.07288	5386.758		-80.85401	
48.12687	5382.385		-80.82566	
48.18085	5377.992		-80.80528	
48.23484	5373.581		-80.79306	
48.28883	5369.15		-80.78906	
48.34281	5364.702		-80.79324	
48.3968	5360.23		-80.80541	
48.45079	5355.735		-80.8253	
48.50477	5351.218		-80.85254	
48.55876	5346.684		-80.88662	
48.61274	5342.129		-80.92693	
48.66673	5337.552		-80.97276	
48.72072	5332.954		-81.02319	
48.7747	5328.352		-81.07727	
48.82869	5323.76		-81.1339	
48.88268	5319.19		-81.19193	
48.93666	5314.656		-81.25013	
48.99065	5310.167		-81.30734	
49.04464	5305.723		-81.36243	
49.09862	5301.321		-81.41435	
49.15261	5296.96		-81.46215	
49.20659	5292.646		-81.50499	
49.26058	5288.379		-81.54217	
49.31457	5284.159		-81.5731	
49.36855	5279.97		-81.5973	
49.42254	5275.794		-81.6144	
49.47652	5271.61		-81.62421	
49.53051	5267.403		-81.62664	
49.5845	5263.167		-81.62176	
49.63848	5258.905		-81.6097	
49.69247	5254.613		-81.59073	
49.74646	5250.283		-81.56517	
49.80045	5245.908		-81.53342	
49.85443	5241.492		-81.49591	
49.90842	5237.044		-81.45311	
49.9624	5232.572		-81.40551	
50.01639	5228.083		-81.35367	
50.07038	5223.58		-81.29813	
50.12436	5219.073		-81.23948	
50.17835	5214.564		-81.17825	
50.23233	5210.055		-81.11488	
50.28632	5205.538		-81.04977	
50.34031	5201.004		-80.98322	
50.39429	5196.439		-80.91552	
50.44828	5191.836		-80.84686	
50.50227	5187.198		-80.77746	
50.55625	5182.539		-80.70744	
50.61024	5177.874		-80.63686	
50.66423	5173.21		-80.56581	
50.71821	5168.556		-80.49423	
50.7722	5163.921		-80.42204	
50.82618	5159.326		-80.34909	
50.88017	5154.79		-80.27513	
50.93416	5150.336		-80.19987	
50.98814	5145.976		-80.12301	
51.04213	5141.707		-80.04419	
51.09612	5137.52		-79.9631	
51.1501	5133.411		-79.87942	
51.20409	5129.367		-79.79292	
51.25808	5125.366		-79.70341	
51.31206	5121.383		-79.61081	
51.36605	5117.399		-79.51515	
51.42004	5113.396		-79.4166	
51.47402	5109.364		-79.31544	
51.52801	5105.286		-79.21205	
51.58199	5101.157		-79.10687	
51.63598	5096.978		-79.0004	
51.68997	5092.75		-78.89317	
51.74395	5088.482		-78.78579	
51.79794	5084.187		-78.67886	
51.85192	5079.881		-78.57294	
51.90591	5075.581		-78.46852	
51.9599	5071.29		-78.36608	
52.01389	5067.007		-78.26601	
52.06787	5062.727		-78.16864	
52.12186	5058.44		-78.07421	
52.17584	5054.157		-77.9829	
52.22983	5049.883		-77.89476	
52.28382	5045.623		-77.80975	
52.3378	5041.369		-77.72778	
52.39179	5037.118		-77.64867	
52.44577	5032.867		-77.57224	
52.49976	5028.615		-77.49821	
52.55375	5024.367		-77.42628	
52.60773	5020.133		-77.35609	
52.66172	5015.919		-77.28728	
52.71571	5011.732		-77.21946	
52.7697	5007.576		-77.15221	
52.82368	5003.464		-77.08509	
52.87767	4999.406		-77.01759	
52.93165	4995.408		-76.9492	
52.98564	4991.454		-76.87937	
53.03963	4987.521		-76.80762	
53.09361	4983.596		-76.73346	
53.1476	4979.669		-76.65651	
53.20158	4975.725		-76.57642	
53.25557	4971.75		-76.49294	
53.30956	4967.735		-76.40594	
53.36354	4963.686		-76.31548	
53.41753	4959.61		-76.22173	
53.47152	4955.521		-76.125	
53.5255	4951.424		-76.02575	
53.57949	4947.325		-75.9245	
53.63348	4943.216		-75.82195	
53.68746	4939.087		-75.71882	
53.74145	4934.925		-75.61592	
53.79543	4930.727		-75.51404	
53.84942	4926.495		-75.4139	
53.90341	4922.231		-75.3162	
53.95739	4917.938		-75.22149	
54.01138	4913.614		-75.13023	
54.06536	4909.262		-75.04276	
54.11935	4904.897		-74.95926	
54.17334	4900.542		-74.87988	
54.22733	4896.208		-74.8046	
54.28131	4891.907		-74.73335	
54.3353	4887.645		-74.66596	
54.38929	4883.435		-74.60223	
54.44327	4879.289		-74.54184	
54.49726	4875.209		-74.48444	
54.55124	4871.19		-74.42957	
54.60523	4867.219		-74.37679	
54.65922	4863.281		-74.32568	
54.7132	4859.362		-74.27586	
54.76719	4855.448		-74.22693	
54.82117	4851.535		-74.17854	
54.87516	4847.629		-74.13027	
54.92915	4843.741		-74.08179	
54.98314	4839.88		-74.03275	
55.03712	4836.061		-73.98289	
55.09111	4832.301		-73.93202	
55.14509	4828.613		-73.88	
55.19908	4824.987		-73.8268	
55.25307	4821.407		-73.77242	
55.30705	4817.841		-73.71697	
55.36104	4814.268		-73.66066	
55.41502	4810.663		-73.60379	
55.46901	4807.009		-73.54674	
55.523	4803.288		-73.48995	
55.57698	4799.493		-73.43394	
55.63097	4795.622		-73.37929	
55.68496	4791.674		-73.32664	
55.73895	4787.656		-73.27662	
55.79293	4783.59		-73.22987	
55.84692	4779.498		-73.187	
55.9009	4775.399		-73.14854	
55.95489	4771.302		-73.11497	
56.00888	4767.211		-73.08665	
56.06286	4763.131		-73.06374	
56.11685	4759.066		-73.0463	
56.17083	4755.011		-73.03412	
56.22482	4750.955		-73.02684	
