T[Â°C]	350nm [counts / mm]	S.D.	First derivative	S.D. of first derivative
19.99998	7028.616		-95.2794	
20.05396	7023.079		-95.31185	
20.10795	7017.545		-95.34492	
20.16194	7012.014		-95.37862	
20.21592	7006.485		-95.41293	
20.26991	7000.958		-95.44783	
20.32389	6995.431		-95.48333	
20.37788	6989.907		-95.5194	
20.43187	6984.384		-95.55602	
20.48586	6978.863		-95.59315	
20.53984	6973.345		-95.63076	
20.59383	6967.831		-95.66882	
20.64781	6962.322		-95.70729	
20.7018	6956.82		-95.74611	
20.75579	6951.328		-95.78522	
20.80977	6945.849		-95.82458	
20.86376	6940.39		-95.86412	
20.91775	6934.963		-95.90377	
20.97173	6929.587		-95.94345	
21.02572	6924.403		-95.98309	
21.0797	6919.258		-96.02258	
21.13369	6914.146		-96.06186	
21.18768	6909.056		-96.10081	
21.24166	6903.986		-96.13935	
21.29565	6898.941		-96.17738	
21.34964	6893.924		-96.2148	
21.40362	6888.937		-96.25151	
21.45761	6883.986		-96.28741	
21.51159	6879.086		-96.32243	
21.56558	6874.245		-96.35648	
21.61957	6869.46		-96.38948	
21.67355	6864.72		-96.42137	
21.72754	6859.999		-96.4521	
21.78153	6855.271		-96.48164	
21.83551	6850.511		-96.50996	
21.8895	6845.7		-96.53705	
21.94349	6840.816		-96.56294	
21.99747	6835.848		-96.58769	
22.05146	6830.777		-96.61138	
22.10544	6825.588		-96.63416	
22.15943	6820.281		-96.65623	
22.21342	6814.867		-96.67786	
22.2674	6809.376		-96.69945	
22.32139	6803.839		-96.72156	
22.37538	6798.276		-96.74495	
22.42936	6792.696		-96.77065	
22.48335	6787.105		-96.8	
22.53734	6781.5		-96.83456	
22.59132	6775.881		-96.87594	
22.64531	6770.261		-96.891	
22.6993	6764.664		-96.90446	
22.75328	6759.107		-96.91593	
22.80727	6753.597		-96.925	
22.86125	6748.129		-96.93128	
22.91524	6742.698		-96.93443	
22.96923	6737.299		-96.93413	
23.02321	6731.93		-96.93008	
23.0772	6726.592		-96.92197	
23.13119	6721.286		-96.90949	
23.18517	6716		-96.8923	
23.23916	6710.736		-96.87006	
23.29314	6705.5		-96.84241	
23.34713	6700.293		-96.80901	
23.40112	6695.105		-96.76954	
23.4551	6689.931		-96.72376	
23.50909	6684.772		-96.67149	
23.56308	6679.621		-96.61266	
23.61706	6674.467		-96.54729	
23.67105	6669.3		-96.47563	
23.72503	6664.11		-96.39803	
23.77902	6658.895		-96.31509	
23.83301	6653.657		-96.22752	
23.887	6648.404		-96.13616	
23.94098	6643.141		-96.04195	
23.99497	6637.869		-95.94588	
24.04895	6632.589		-95.84906	
24.10294	6627.309		-95.75262	
24.15693	6622.025		-95.65769	
24.21091	6616.75		-95.56544	
24.2649	6611.501		-95.47697	
24.31889	6606.297		-95.39335	
24.37287	6601.139		-95.31559	
24.42686	6596.026		-95.24457	
24.48084	6590.957		-95.18102	
24.53483	6585.918		-95.1255	
24.58882	6580.891		-95.07842	
24.6428	6575.858		-95.04005	
24.69679	6570.809		-95.01048	
24.75078	6565.745		-94.98976	
24.80476	6560.676		-94.97782	
24.85875	6555.615		-94.97453	
24.91273	6550.579		-94.97969	
24.96672	6545.58		-94.99302	
25.02071	6540.628		-95.01414	
25.07469	6535.726		-95.04258	
25.12868	6530.866		-95.07786	
25.18267	6526.039		-95.11945	
25.23665	6521.228		-95.16685	
25.29064	6516.42		-95.21954	
25.34463	6511.602		-95.27692	
25.39861	6506.761		-95.33836	
25.4526	6501.882		-95.40315	
25.50659	6496.956		-95.4706	
25.56057	6491.986		-95.53995	
25.61456	6486.983		-95.61047	
25.66854	6481.969		-95.68149	
25.72253	6476.961		-95.75242	
25.77652	6471.966		-95.82281	
25.8305	6466.988		-95.8923	
25.88449	6462.031		-95.96059	
25.93848	6457.081		-96.02744	
25.99246	6452.119		-96.09259	
26.04645	6447.123		-96.15579	
26.10044	6442.071		-96.21677	
26.15442	6436.944		-96.2752	
26.20841	6431.722		-96.33077	
26.26239	6426.388		-96.38317	
26.31638	6420.931		-96.43213	
26.37037	6415.346		-96.47736	
26.42435	6409.665		-96.51859	
26.47834	6403.938		-96.55548	
26.53233	6398.216		-96.58768	
26.58631	6392.542		-96.61481	
26.6403	6386.933		-96.63657	
26.69428	6381.398		-96.65262	
26.74827	6375.935		-96.66267	
26.80226	6370.535		-96.66651	
26.85624	6365.171		-96.66393	
26.91023	6359.821		-96.65482	
26.96422	6354.469		-96.63907	
27.0182	6349.104		-96.61669	
27.07219	6343.719		-96.58775	
27.12617	6338.304		-96.55241	
27.18016	6332.855		-96.51092	
27.23415	6327.38		-96.46361	
27.28814	6321.901		-96.41095	
27.34212	6316.446		-96.35348	
27.39611	6311.033		-96.29173	
27.45009	6305.658		-96.22623	
27.50408	6300.315		-96.15746	
27.55807	6295.009		-96.08588	
27.61205	6289.753		-96.01186	
27.66604	6284.554		-95.93575	
27.72003	6279.401		-95.85788	
27.77401	6274.267		-95.7785	
27.828	6269.128		-95.69781	
27.88198	6263.969		-95.61594	
27.93597	6258.787		-95.53295	
27.98996	6253.585		-95.44889	
28.04394	6248.373		-95.36381	
28.09793	6243.167		-95.27772	
28.15192	6237.988		-95.19069	
28.2059	6232.857		-95.10281	
28.25989	6227.778		-95.01421	
28.31388	6222.741		-94.92512	
28.36786	6217.734		-94.83574	
28.42185	6212.753		-94.74637	
28.47583	6207.804		-94.65725	
28.52982	6202.896		-94.56861	
28.58381	6198.034		-94.48064	
28.63779	6193.228		-94.39346	
28.69178	6188.489		-94.30719	
28.74577	6183.826		-94.22188	
28.79975	6179.222		-94.13756	
28.85374	6174.639		-94.05426	
28.90773	6170.042		-93.97202	
28.96171	6165.399		-93.89098	
29.0157	6160.7		-93.81139	
29.06968	6155.946		-93.73358	
29.12367	6151.14		-93.65794	
29.17766	6146.286		-93.58488	
29.23164	6141.398		-93.51482	
29.28563	6136.482		-93.4482	
29.33962	6131.548		-93.38541	
29.3936	6126.591		-93.32682	
29.44759	6121.594		-93.27274	
29.50158	6116.536		-93.22341	
29.55556	6111.404		-93.17898	
29.60955	6106.193		-93.13944	
29.66353	6100.911		-93.10461	
29.71752	6095.568		-93.07407	
29.77151	6090.173		-93.04722	
29.82549	6084.731		-93.02323	
29.87948	6079.245		-93.00114	
29.93347	6073.727		-92.97984	
29.98745	6068.193		-92.95818	
30.04144	6062.664		-92.93503	
30.09542	6057.17		-92.90931	
30.14941	6051.739		-92.88008	
30.2034	6046.391		-92.8465	
30.25739	6041.143		-92.80782	
30.31137	6036		-92.76343	
30.36536	6030.966		-92.71279	
30.41934	6026.035		-92.65559	
30.47333	6021.188		-92.59158	
30.52732	6016.394		-92.52062	
30.5813	6011.618		-92.44261	
30.63529	6006.837		-92.35751	
30.68928	6002.049		-92.26528	
30.74326	5997.254		-92.16594	
30.79725	5992.451		-92.0595	
30.85123	5987.634		-91.94604	
30.90522	5982.794		-91.82578	
30.95921	5977.925		-91.6991	
31.01319	5973.025		-91.56659	
31.06718	5968.094		-91.42901	
31.12117	5963.142		-91.28728	
31.17515	5958.177		-91.14252	
31.22914	5953.203		-90.99592	
31.28312	5948.217		-90.84878	
31.33711	5943.216		-90.70237	
31.3911	5938.196		-90.55798	
31.44508	5933.164		-90.41685	
31.49907	5928.118		-90.28021	
31.55306	5923.044		-90.14924	
31.60704	5917.936		-90.02496	
31.66103	5912.798		-89.90824	
31.71502	5907.64		-89.79971	
31.769	5902.482		-89.69971	
31.82299	5897.353		-89.60839	
31.87697	5892.284		-89.52568	
31.93096	5887.305		-89.45136	
31.98495	5882.434		-89.38507	
32.03893	5877.678		-89.32632	
32.09292	5873.034		-89.27458	
32.14691	5868.488		-89.22929	
32.20089	5864.026		-89.18991	
32.25488	5859.636		-89.15594	
32.30886	5855.306		-89.1269	
32.36285	5851.019		-89.1024	
32.41684	5846.75		-89.08215	
32.47083	5842.469		-89.06593	
32.52481	5838.15		-89.05363	
32.5788	5833.777		-89.04523	
32.63278	5829.351		-89.04079	
32.68677	5824.875		-89.04041	
32.74076	5820.358		-89.04421	
32.79474	5815.807		-89.05235	
32.84873	5811.231		-89.06496	
32.90271	5806.635		-89.08222	
32.9567	5802.015		-89.10432	
33.01069	5797.362		-89.13143	
33.06467	5792.672		-89.16373	
33.11866	5787.945		-89.20138	
33.17265	5783.177		-89.24454	
33.22663	5778.361		-89.29336	
33.28062	5773.489		-89.34789	
33.33461	5768.561		-89.40814	
33.38859	5763.589		-89.47401	
33.44258	5758.58		-89.54534	
33.49657	5753.535		-89.62191	
33.55055	5748.452		-89.70345	
33.60454	5743.336		-89.78967	
33.65852	5738.194		-89.88023	
33.71251	5733.03		-89.97469	
33.7665	5727.848		-90.07247	
33.82048	5722.66		-90.17288	
33.87447	5717.484		-90.2751	
33.92846	5712.339		-90.37821	
33.98244	5707.251		-90.48121	
34.03643	5702.237		-90.58296	
34.09042	5697.296		-90.68227	
34.1444	5692.413		-90.77792	
34.19839	5687.573		-90.86873	
34.25237	5682.771		-90.95358	
34.30636	5678.01		-91.03149	
34.36035	5673.292		-91.10152	
34.41433	5668.602		-91.16293	
34.46832	5663.913		-91.21509	
34.5223	5659.203		-91.2575	
34.57629	5654.455		-91.28988	
34.63028	5649.659		-91.3121	
34.68427	5644.807		-91.32428	
34.73825	5639.895		-91.32666	
34.79224	5634.918		-91.31967	
34.84623	5629.884		-91.30387	
34.90021	5624.801		-91.27989	
34.9542	5619.682		-91.24839	
35.00818	5614.544		-91.21003	
35.06217	5609.405		-91.16544	
35.11616	5604.272		-91.11523	
35.17014	5599.144		-91.05994	
35.22413	5594.013		-91.00002	
35.27811	5588.875		-90.93579	
35.3321	5583.732		-90.86752	
35.38609	5578.583		-90.79532	
35.44007	5573.427		-90.71933	
35.49406	5568.263		-90.63964	
35.54805	5563.094		-90.5564	
35.60203	5557.925		-90.4698	
35.65602	5552.764		-90.38008	
35.71001	5547.623		-90.28753	
35.76399	5542.523		-90.19244	
35.81798	5537.488		-90.09515	
35.87196	5532.53		-89.99593	
35.92595	5527.663		-89.8951	
35.97994	5522.9		-89.79293	
36.03392	5518.243		-89.68958	
36.08791	5513.677		-89.58517	
36.1419	5509.174		-89.47974	
36.19588	5504.702		-89.3733	
36.24987	5500.237		-89.26585	
36.30386	5495.763		-89.15741	
36.35784	5491.265		-89.04801	
36.41183	5486.728		-88.93777	
36.46582	5482.14		-88.82687	
36.5198	5477.492		-88.7156	
36.57379	5472.783		-88.60426	
36.62777	5468.024		-88.4933	
36.68176	5463.229		-88.38323	
36.73575	5458.407		-88.27468	
36.78973	5453.564		-88.16837	
36.84372	5448.712		-88.06502	
36.89771	5443.855		-87.96534	
36.95169	5439.004		-87.86993	
37.00568	5434.167		-87.77928	
37.05967	5429.349		-87.69376	
37.11365	5424.543		-87.6136	
37.16764	5419.745		-87.53884	
37.22162	5414.943		-87.46931	
37.27561	5410.137		-87.40466	
37.3296	5405.333		-87.34438	
37.38358	5400.543		-87.28783	
37.43757	5395.773		-87.23437	
37.49155	5391.032		-87.18331	
37.54554	5386.33		-87.13406	
37.59953	5381.683		-87.08602	
37.65351	5377.096		-87.03864	
37.7075	5372.569		-86.99145	
37.76149	5368.099		-86.94402	
37.81548	5363.68		-86.89602	
37.86946	5359.302		-86.84721	
37.92345	5354.958		-86.79741	
37.97743	5350.635		-86.74651	
38.03142	5346.307		-86.69443	
38.08541	5341.936		-86.64112	
38.13939	5337.493		-86.58654	
38.19338	5332.965		-86.53064	
38.24736	5328.348		-86.4734	
38.30135	5323.642		-86.41488	
38.35534	5318.858		-86.35513	
38.40932	5314.018		-86.29431	
38.46331	5309.14		-86.23264	
38.5173	5304.241		-86.1704	
38.57128	5299.341		-86.10796	
38.62527	5294.462		-86.04565	
38.67926	5289.623		-85.98392	
38.73324	5284.827		-85.92326	
38.78723	5280.07		-85.86416	
38.84121	5275.331		-85.80717	
38.8952	5270.585		-85.75277	
38.94919	5265.814		-85.70132	
39.00317	5261.002		-85.65314	
39.05716	5256.153		-85.6084	
39.11115	5251.28		-85.56721	
39.16513	5246.394		-85.52954	
39.21912	5241.51		-85.4952	
39.27311	5236.641		-85.46384	
39.32709	5231.801		-85.43497	
39.38108	5227.006		-85.40804	
39.43507	5222.276		-85.38239	
39.48905	5217.626		-85.35743	
39.54304	5213.065		-85.33254	
39.59702	5208.589		-85.30714	
39.65101	5204.181		-85.28069	
39.705	5199.818		-85.25274	
39.75898	5195.484		-85.22289	
39.81297	5191.169		-85.19089	
39.86695	5186.86		-85.15656	
39.92094	5182.549		-85.11987	
39.97493	5178.227		-85.08091	
40.02892	5173.877		-85.03987	
40.0829	5169.487		-84.99708	
40.13689	5165.06		-84.95296	
40.19087	5160.606		-84.90809	
40.24486	5156.141		-84.86309	
40.29885	5151.675		-84.81866	
40.35283	5147.223		-84.77554	
40.40682	5142.79		-84.73446	
40.4608	5138.372		-84.69614	
40.51479	5133.951		-84.66121	
40.56878	5129.503		-84.63022	
40.62276	5125.012		-84.6036	
40.67675	5120.476		-84.5817	
40.73074	5115.896		-84.56483	
40.78473	5111.274		-84.55315	
40.83871	5106.61		-84.54677	
40.8927	5101.913		-84.54565	
40.94668	5097.188		-84.54967	
41.00067	5092.438		-84.55858	
41.05465	5087.668		-84.57201	
41.10864	5082.887		-84.58955	
41.16263	5078.112		-84.61067	
41.21661	5073.359		-84.63483	
41.2706	5068.639		-84.66134	
41.32458	5063.957		-84.6894	
41.37857	5059.316		-84.71812	
41.43256	5054.728		-84.74652	
41.48655	5050.2		-84.77356	
41.54053	5045.73		-84.7982	
41.59452	5041.303		-84.8194	
41.64851	5036.887		-84.8362	
41.70249	5032.459		-84.84765	
41.75648	5028.014		-84.85293	
41.81046	5023.558		-84.85134	
41.86445	5019.106		-84.84231	
41.91844	5014.674		-84.82545	
41.97242	5010.266		-84.80054	
42.02641	5005.873		-84.76751	
42.08039	5001.473		-84.72648	
42.13438	4997.047		-84.67773	
42.18837	4992.57		-84.62173	
42.24236	4988.024		-84.5591	
42.29634	4983.405		-84.49065	
42.35033	4978.716		-84.41728	
42.40431	4973.972		-84.33997	
42.4583	4969.188		-84.25967	
42.51229	4964.378		-84.17731	
42.56627	4959.553		-84.09373	
42.62026	4954.722		-84.00964	
42.67424	4949.893		-83.9257	
42.72823	4945.059		-83.84242	
42.78222	4940.221		-83.76025	
42.8362	4935.382		-83.67949	
42.89019	4930.554		-83.60034	
42.94418	4925.74		-83.52293	
42.99817	4920.945		-83.4473	
43.05215	4916.178		-83.37343	
43.10614	4911.446		-83.30125	
43.16012	4906.754		-83.2307	
43.21411	4902.099		-83.16164	
43.2681	4897.479		-83.09396	
43.32208	4892.896		-83.02749	
43.37607	4888.354		-82.96201	
43.43005	4883.862		-82.89729	
43.48404	4879.43		-82.83302	
43.53803	4875.076		-82.76889	
43.59201	4870.807		-82.70454	
43.646	4866.62		-82.63958	
43.69999	4862.5		-82.57365	
43.75397	4858.422		-82.50641	
43.80796	4854.36		-82.43755	
43.86195	4850.293		-82.36687	
43.91593	4846.209		-82.29429	
43.96992	4842.105		-82.21986	
44.0239	4837.98		-82.14375	
44.07789	4833.838		-82.06621	
44.13188	4829.68		-81.98759	
44.18586	4825.505		-81.90828	
44.23985	4821.308		-81.82882	
44.29383	4817.079		-81.74984	
44.34782	4812.809		-81.67207	
44.40181	4808.494		-81.59629	
44.4558	4804.128		-81.52324	
44.50978	4799.722		-81.45364	
44.56377	4795.288		-81.38811	
44.61776	4790.847		-81.32713	
44.67174	4786.406		-81.27105	
44.72573	4781.964		-81.22005	
44.77971	4777.522		-81.17416	
44.8337	4773.071		-81.13322	
44.88769	4768.592		-81.09702	
44.94167	4764.071		-81.06515	
44.99566	4759.507		-81.03715	
45.04964	4754.909		-81.01247	
45.10363	4750.294		-80.99052	
45.15762	4745.687		-80.97063	
45.21161	4741.109		-80.95212	
45.26559	4736.585		-80.93427	
45.31958	4732.125		-80.91642	
45.37356	4727.733		-80.89793	
45.42755	4723.401		-80.8782	
45.48154	4719.121		-80.85669	
45.53552	4714.876		-80.83287	
45.58951	4710.645		-80.80626	
45.64349	4706.406		-80.7764	
45.69748	4702.149		-80.74287	
45.75147	4697.868		-80.70531	
45.80545	4693.551		-80.66343	
45.85944	4689.198		-80.617	
45.91343	4684.809		-80.56593	
45.96741	4680.39		-80.51024	
46.0214	4675.951		-80.45006	
46.07539	4671.506		-80.38564	
46.12937	4667.072		-80.3173	
46.18336	4662.665		-80.24545	
46.23735	4658.294		-80.17059	
46.29133	4653.964		-80.09329	
46.34532	4649.661		-80.01424	
46.3993	4645.361		-79.93417	
46.45329	4641.038		-79.85382	
46.50728	4636.661		-79.77394	
46.56126	4632.211		-79.69521	
46.61525	4627.686		-79.61823	
46.66924	4623.098		-79.54343	
46.72322	4618.477		-79.47115	
46.77721	4613.856		-79.40157	
46.8312	4609.266		-79.33481	
46.88518	4604.732		-79.27083	
46.93917	4600.273		-79.20955	
46.99315	4595.902		-79.15081	
47.04714	4591.615		-79.0944	
47.10113	4587.399		-79.04007	
47.15511	4583.244		-78.98758	
47.2091	4579.138		-78.93664	
47.26308	4575.079		-78.88692	
47.31707	4571.054		-78.8381	
47.37106	4567.06		-78.78983	
47.42505	4563.088		-78.74178	
47.47903	4559.133		-78.69363	
47.53302	4555.184		-78.64511	
47.58701	4551.228		-78.59602	
47.64099	4547.254		-78.54622	
47.69498	4543.264		-78.49562	
47.74896	4539.263		-78.44423	
47.80295	4535.26		-78.39209	
47.85694	4531.258		-78.33932	
47.91092	4527.259		-78.2861	
47.96491	4523.251		-78.23265	
48.01889	4519.222		-78.1792	
48.07288	4515.159		-78.126	
48.12687	4511.049		-78.07332	
48.18085	4506.887		-78.02145	
48.23484	4502.669		-77.97072	
48.28883	4498.4		-77.92144	
48.34281	4494.092		-77.87396	
48.3968	4489.757		-77.82862	
48.45079	4485.403		-77.78577	
48.50477	4481.032		-77.74573	
48.55876	4476.644		-77.70874	
48.61274	4472.238		-77.67501	
48.66673	4467.821		-77.64465	
48.72072	4463.403		-77.61768	
48.7747	4458.995		-77.59401	
48.82869	4454.603		-77.57346	
48.88268	4450.226		-77.55573	
48.93666	4445.871		-77.54047	
48.99065	4441.544		-77.52729	
49.04464	4437.247		-77.51576	
49.09862	4432.975		-77.50547	
49.15261	4428.728		-77.49602	
49.20659	4424.508		-77.48703	
49.26058	4420.317		-77.47814	
49.31457	4416.158		-77.469	
49.36855	4412.026		-77.45924	
49.42254	4407.915		-77.4485	
49.47652	4403.818		-77.43649	
49.53051	4399.738		-77.42293	
49.5845	4395.665		-77.40762	
49.63848	4391.589		-77.3904	
49.69247	4387.495		-77.37116	
49.74646	4383.364		-77.34992	
49.80045	4379.19		-77.32675	
49.85443	4374.981		-77.30179	
49.90842	4370.75		-77.27518	
49.9624	4366.514		-77.24711	
50.01639	4362.289		-77.2177	
50.07038	4358.092		-77.18714	
50.12436	4353.933		-77.15556	
50.17835	4349.816		-77.12312	
50.23233	4345.735		-77.08996	
50.28632	4341.678		-77.05625	
50.34031	4337.63		-77.02216	
50.39429	4333.574		-76.98786	
50.44828	4329.494		-76.9535	
50.50227	4325.38		-76.91919	
50.55625	4321.232		-76.88501	
50.61024	4317.054		-76.85098	
50.66423	4312.849		-76.81708	
50.71821	4308.629		-76.78322	
50.7722	4304.412		-76.7493	
50.82618	4300.208		-76.71514	
50.88017	4296.029		-76.68056	
50.93416	4291.881		-76.64536	
50.98814	4287.769		-76.60923	
51.04213	4283.692		-76.57193	
51.09612	4279.651		-76.53321	
51.1501	4275.641		-76.49288	
51.20409	4271.654		-76.45081	
51.25808	4267.686		-76.40693	
51.31206	4263.728		-76.36121	
51.36605	4259.767		-76.31365	
51.42004	4255.787		-76.26432	
51.47402	4251.774		-76.21332	
51.52801	4247.714		-76.16078	
51.58199	4243.606		-76.10687	
51.63598	4239.457		-76.05179	
51.68997	4235.27		-75.99577	
51.74395	4231.053		-75.93913	
51.79794	4226.819		-75.88216	
51.85192	4222.582		-75.82514	
51.90591	4218.344		-75.76836	
51.9599	4214.109		-75.71201	
52.01389	4209.873		-75.6563	
52.06787	4205.627		-75.60134	
52.12186	4201.369		-75.5472	
52.17584	4197.108		-75.49392	
52.22983	4192.859		-75.44145	
52.28382	4188.626		-75.38976	
52.3378	4184.405		-75.33878	
52.39179	4180.193		-75.28844	
52.44577	4175.987		-75.2387	
52.49976	4171.787		-75.18943	
52.55375	4167.598		-75.1405	
52.60773	4163.424		-75.09167	
52.66172	4159.27		-75.04271	
52.71571	4155.146		-74.99331	
52.7697	4151.062		-74.94311	
52.82368	4147.031		-74.89171	
52.87767	4143.056		-74.83868	
52.93165	4139.131		-74.78355	
52.98564	4135.241		-74.72589	
53.03963	4131.38		-74.66525	
53.09361	4127.546		-74.60129	
53.1476	4123.733		-74.53371	
53.20158	4119.931		-74.46231	
53.25557	4116.136		-74.38698	
53.30956	4112.339		-74.30767	
53.36354	4108.539		-74.22443	
53.41753	4104.728		-74.13737	
53.47152	4100.904		-74.04669	
53.5255	4097.065		-73.95268	
53.57949	4093.214		-73.85571	
53.63348	4089.342		-73.75623	
53.68746	4085.43		-73.65482	
53.74145	4081.468		-73.55204	
53.79543	4077.45		-73.44856	
53.84942	4073.384		-73.34501	
53.90341	4069.288		-73.242	
53.95739	4065.179		-73.14011	
54.01138	4061.073		-73.03986	
54.06536	4056.979		-72.94169	
54.11935	4052.911		-72.84602	
54.17334	4048.88		-72.75315	
54.22733	4044.879		-72.66335	
54.28131	4040.895		-72.57677	
54.3353	4036.914		-72.49349	
54.38929	4032.931		-72.41357	
54.44327	4028.942		-72.33696	
54.49726	4024.946		-72.26355	
54.55124	4020.941		-72.19316	
54.60523	4016.928		-72.1256	
54.65922	4012.91		-72.06065	
54.7132	4008.894		-71.9981	
54.76719	4004.889		-71.93766	
54.82117	4000.913		-71.87902	
54.87516	3996.974		-71.82182	
54.92915	3993.071		-71.76569	
54.98314	3989.196		-71.71032	
55.03712	3985.349		-71.65538	
55.09111	3981.532		-71.60059	
55.14509	3977.746		-71.54569	
55.19908	3973.991		-71.49043	
55.25307	3970.26		-71.43459	
55.30705	3966.547		-71.37797	
55.36104	3962.847		-71.3204	
55.41502	3959.148		-71.2618	
55.46901	3955.437		-71.20211	
55.523	3951.707		-71.1414	
55.57698	3947.959		-71.07985	
55.63097	3944.198		-71.01772	
55.68496	3940.425		-70.95541	
55.73895	3936.645		-70.89331	
55.79293	3932.865		-70.83192	
55.84692	3929.09		-70.77174	
55.9009	3925.327		-70.71325	
55.95489	3921.575		-70.65689	
56.00888	3917.825		-70.60309	
56.06286	3914.077		-70.55221	
56.11685	3910.334		-70.50455	
56.17083	3906.597		-70.46031	
