T[Â°C]	350nm [counts / mm]	S.D.	First derivative	S.D. of first derivative
20.00033	4289.035		-65.0995	
20.05443	4285.634		-64.98347	
20.10854	4282.238		-64.86774	
20.16265	4278.846		-64.75233	
20.21675	4275.459		-64.63726	
20.27086	4272.075		-64.52258	
20.32496	4268.694		-64.40831	
20.37907	4265.316		-64.29447	
20.43317	4261.942		-64.18111	
20.48728	4258.572		-64.06826	
20.54138	4255.206		-63.95594	
20.59549	4251.845		-63.8442	
20.6496	4248.487		-63.73306	
20.7037	4245.134		-63.62257	
20.75781	4241.783		-63.51276	
20.81191	4238.437		-63.40365	
20.86602	4235.099		-63.29529	
20.92012	4231.779		-63.1877	
20.97423	4228.432		-63.08091	
21.02833	4225.04		-62.97495	
21.08244	4221.595		-62.86983	
21.13655	4218.102		-62.76558	
21.19065	4214.575		-62.66222	
21.24476	4211.031		-62.55975	
21.29886	4207.497		-62.4582	
21.35297	4203.992		-62.35756	
21.40707	4200.527		-62.25784	
21.46118	4197.103		-62.15902	
21.51529	4193.708		-62.06111	
21.56939	4190.328		-61.96408	
21.6235	4186.953		-61.86791	
21.6776	4183.577		-61.77257	
21.73171	4180.194		-61.67802	
21.78581	4176.804		-61.58419	
21.83992	4173.411		-61.49104	
21.89402	4170.024		-61.39846	
21.94813	4166.651		-61.30637	
22.00224	4163.303		-61.21465	
22.05634	4159.996		-61.12315	
22.11045	4156.74		-61.03169	
22.16455	4153.544		-60.94009	
22.21866	4150.409		-60.8481	
22.27276	4147.333		-60.75547	
22.32687	4144.309		-60.66193	
22.38097	4141.326		-60.5672	
22.43508	4138.375		-60.47113	
22.48919	4135.443		-60.37366	
22.54329	4132.513		-60.27505	
22.5974	4129.57		-60.17584	
22.6515	4126.598		-60.11202	
22.70561	4123.588		-60.04993	
22.75971	4120.535		-59.98977	
22.81382	4117.436		-59.93174	
22.86792	4114.301		-59.87603	
22.92203	4111.134		-59.82284	
22.97614	4107.941		-59.77233	
23.03024	4104.729		-59.72464	
23.08435	4101.503		-59.67986	
23.13845	4098.268		-59.63807	
23.19256	4095.017		-59.5993	
23.24666	4091.745		-59.56355	
23.30077	4088.447		-59.53079	
23.35488	4085.124		-59.50095	
23.40898	4081.784		-59.47394	
23.46309	4078.436		-59.44967	
23.51719	4075.085		-59.42802	
23.5713	4071.738		-59.40891	
23.6254	4068.397		-59.39218	
23.67951	4065.059		-59.37771	
23.73361	4061.721		-59.36533	
23.78772	4058.383		-59.35485	
23.84183	4055.048		-59.34608	
23.89593	4051.721		-59.3388	
23.95004	4048.41		-59.33281	
24.00414	4045.123		-59.32791	
24.05825	4041.87		-59.32393	
24.11235	4038.652		-59.32068	
24.16646	4035.468		-59.318	
24.22056	4032.319		-59.31572	
24.27467	4029.196		-59.31363	
24.32878	4026.09		-59.31152	
24.38288	4022.988		-59.30917	
24.43699	4019.878		-59.30639	
24.49109	4016.75		-59.30297	
24.5452	4013.602		-59.29876	
24.5993	4010.427		-59.29361	
24.65341	4007.217		-59.28742	
24.70752	4003.972		-59.28009	
24.76162	4000.699		-59.27155	
24.81573	3997.413		-59.2618	
24.86983	3994.124		-59.25089	
24.92394	3990.84		-59.23891	
24.97804	3987.559		-59.22599	
25.03215	3984.278		-59.21228	
25.08625	3981		-59.19796	
25.14036	3977.728		-59.18314	
25.19447	3974.465		-59.16792	
25.24857	3971.216		-59.15235	
25.30268	3967.981		-59.13642	
25.35678	3964.762		-59.12011	
25.41089	3961.561		-59.10335	
25.46499	3958.375		-59.08611	
25.5191	3955.208		-59.06832	
25.5732	3952.064		-59.04999	
25.62731	3948.952		-59.03114	
25.68142	3945.877		-59.01184	
25.73552	3942.84		-58.99218	
25.78963	3939.835		-58.97231	
25.84373	3936.853		-58.95234	
25.89784	3933.882		-58.93247	
25.95194	3930.908		-58.91287	
26.00605	3927.917		-58.89371	
26.06015	3924.891		-58.87512	
26.11426	3921.821		-58.85721	
26.16837	3918.701		-58.84006	
26.22247	3915.531		-58.82372	
26.27658	3912.319		-58.80823	
26.33068	3909.077		-58.79362	
26.38479	3905.813		-58.7799	
26.43889	3902.536		-58.76709	
26.493	3899.255		-58.75521	
26.54711	3895.972		-58.74427	
26.60121	3892.69		-58.73429	
26.65532	3889.406		-58.72526	
26.70942	3886.111		-58.71717	
26.76353	3882.803		-58.71	
26.81763	3879.487		-58.70372	
26.87174	3876.171		-58.69828	
26.92584	3872.864		-58.69357	
26.97995	3869.572		-58.68946	
27.03406	3866.299		-58.68573	
27.08816	3863.047		-58.68207	
27.14227	3859.815		-58.6781	
27.19637	3856.604		-58.67334	
27.25048	3853.416		-58.66728	
27.30458	3850.248		-58.65935	
27.35869	3847.095		-58.64895	
27.41279	3843.96		-58.63551	
27.4669	3840.841		-58.61849	
27.52101	3837.735		-58.59738	
27.57511	3834.638		-58.57178	
27.62922	3831.55		-58.54139	
27.68332	3828.466		-58.50603	
27.73743	3825.388		-58.46564	
27.79153	3822.317		-58.42028	
27.84564	3819.252		-58.37015	
27.89975	3816.192		-58.31552	
27.95385	3813.133		-58.2568	
28.00796	3810.061		-58.19442	
28.06206	3806.964		-58.12888	
28.11617	3803.832		-58.0607	
28.17027	3800.656		-57.99045	
28.22438	3797.437		-57.91873	
28.27848	3794.179		-57.84614	
28.33259	3790.898		-57.7733	
28.3867	3787.608		-57.70081	
28.4408	3784.325		-57.6293	
28.49491	3781.059		-57.55938	
28.54901	3777.82		-57.49165	
28.60312	3774.617		-57.42671	
28.65722	3771.448		-57.36515	
28.71133	3768.304		-57.3075	
28.76543	3765.169		-57.25423	
28.81954	3762.032		-57.20576	
28.87365	3758.885		-57.1624	
28.92775	3755.721		-57.12432	
28.98186	3752.535		-57.09162	
29.03596	3749.333		-57.06421	
29.09007	3746.125		-57.04192	
29.14417	3742.923		-57.02442	
29.19828	3739.741		-57.01133	
29.25238	3736.596		-57.00215	
29.30649	3733.501		-56.99636	
29.3606	3730.458		-56.99337	
29.4147	3727.474		-56.99256	
29.46881	3724.547		-56.99327	
29.52291	3721.675		-56.99482	
29.57702	3718.847		-56.99655	
29.63112	3716.048		-56.99788	
29.68523	3713.265		-56.99828	
29.73934	3710.482		-56.99738	
29.79344	3707.687		-56.99489	
29.84755	3704.874		-56.99063	
29.90165	3702.047		-56.98455	
29.95576	3699.206		-56.97664	
30.00986	3696.351		-56.96702	
30.06397	3693.479		-56.95581	
30.11807	3690.581		-56.94325	
30.17218	3687.647		-56.92956	
30.22629	3684.671		-56.91504	
30.28039	3681.654		-56.89999	
30.3345	3678.6		-56.88469	
30.3886	3675.51		-56.86938	
30.44271	3672.388		-56.85428	
30.49681	3669.233		-56.83957	
30.55092	3666.056		-56.82538	
30.60502	3662.868		-56.81184	
30.65913	3659.677		-56.799	
30.71324	3656.48		-56.78693	
30.76734	3653.274		-56.77561	
30.82145	3650.057		-56.76501	
30.87555	3646.829		-56.75506	
30.92966	3643.587		-56.74567	
30.98376	3640.328		-56.73672	
31.03787	3637.045		-56.72802	
31.09198	3633.732		-56.71939	
31.14608	3630.391		-56.71057	
31.20019	3627.032		-56.70127	
31.25429	3623.679		-56.69119	
31.3084	3620.355		-56.67992	
31.3625	3617.08		-56.66704	
31.41661	3613.864		-56.65206	
31.47071	3610.713		-56.63447	
31.52482	3607.626		-56.61373	
31.57893	3604.599		-56.58929	
31.63303	3601.625		-56.56065	
31.68714	3598.688		-56.52736	
31.74124	3595.767		-56.48903	
31.79535	3592.837		-56.44542	
31.84945	3589.878		-56.39639	
31.90356	3586.883		-56.34188	
31.95766	3583.853		-56.28201	
32.01177	3580.801		-56.21696	
32.06588	3577.743		-56.14704	
32.11998	3574.691		-56.07267	
32.17409	3571.645		-55.99435	
32.22819	3568.602		-55.91268	
32.2823	3565.559		-55.82829	
32.3364	3562.516		-55.74184	
32.39051	3559.471		-55.65403	
32.44461	3556.426		-55.56556	
32.49872	3553.384		-55.47708	
32.55283	3550.352		-55.38926	
32.60693	3547.335		-55.30267	
32.66104	3544.334		-55.21785	
32.71514	3541.345		-55.13527	
32.76925	3538.359		-55.05536	
32.82335	3535.371		-54.97855	
32.87746	3532.385		-54.90525	
32.93156	3529.42		-54.8359	
32.98567	3526.483		-54.77091	
33.03978	3523.579		-54.71075	
33.09388	3520.698		-54.65585	
33.14799	3517.832		-54.60662	
33.2021	3514.976		-54.56339	
33.2562	3512.129		-54.52634	
33.31031	3509.29		-54.49556	
33.36441	3506.463		-54.47099	
33.41851	3503.645		-54.45244	
33.47262	3500.833		-54.43956	
33.52673	3498.021		-54.43187	
33.58083	3495.207		-54.42872	
33.63494	3492.39		-54.42934	
33.68904	3489.574		-54.43288	
33.74315	3486.759		-54.43846	
33.79726	3483.94		-54.44525	
33.85136	3481.111		-54.45247	
33.90547	3478.263		-54.45942	
33.95957	3475.394		-54.4655	
34.01368	3472.501		-54.47022	
34.06778	3469.592		-54.47319	
34.12189	3466.681		-54.47414	
34.17599	3463.779		-54.47289	
34.2301	3460.891		-54.46934	
34.28421	3458.01		-54.46349	
34.33831	3455.122		-54.4554	
34.39242	3452.216		-54.4452	
34.44652	3449.287		-54.43311	
34.50063	3446.335		-54.41938	
34.55473	3443.367		-54.40429	
34.60884	3440.39		-54.38805	
34.66294	3437.412		-54.37085	
34.71705	3434.441		-54.35283	
34.77116	3431.474		-54.33409	
34.82526	3428.509		-54.31469	
34.87937	3425.538		-54.29471	
34.93347	3422.549		-54.27428	
34.98758	3419.534		-54.25356	
35.04168	3416.491		-54.23279	
35.09579	3413.414		-54.21226	
35.14989	3410.304		-54.19228	
35.204	3407.166		-54.1732	
35.25811	3404.004		-54.15531	
35.31221	3400.826		-54.13889	
35.36632	3397.641		-54.12417	
35.42042	3394.458		-54.11129	
35.47453	3391.282		-54.10027	
35.52863	3388.117		-54.09103	
35.58274	3384.964		-54.08329	
35.63684	3381.824		-54.07667	
35.69095	3378.702		-54.07069	
35.74506	3375.609		-54.06483	
35.79916	3372.551		-54.05857	
35.85327	3369.533		-54.05139	
35.90737	3366.562		-54.04279	
35.96148	3363.638		-54.03233	
36.01558	3360.766		-54.01961	
36.06969	3357.939		-54.00428	
36.12379	3355.163		-53.98607	
36.1779	3352.445		-53.96479	
36.23201	3349.784		-53.94036	
36.28611	3347.17		-53.91277	
36.34022	3344.586		-53.88214	
36.39433	3342.009		-53.84868	
36.44843	3339.423		-53.81272	
36.50254	3336.815		-53.77463	
36.55664	3334.174		-53.73485	
36.61074	3331.496		-53.69381	
36.66485	3328.778		-53.65196	
36.71896	3326.027		-53.60972	
36.77306	3323.256		-53.56748	
36.82717	3320.479		-53.52562	
36.88128	3317.699		-53.48447	
36.93538	3314.907		-53.44444	
36.98949	3312.091		-53.40589	
37.04359	3309.24		-53.36927	
37.0977	3306.348		-53.335	
37.1518	3303.417		-53.30353	
37.20591	3300.449		-53.27526	
37.26001	3297.442		-53.25055	
37.31412	3294.403		-53.22975	
37.36823	3291.342		-53.21312	
37.42233	3288.271		-53.20086	
37.47644	3285.202		-53.19309	
37.53054	3282.141		-53.1898	
37.58465	3279.092		-53.19086	
37.63875	3276.058		-53.1961	
37.69286	3273.044		-53.2052	
37.74696	3270.057		-53.21777	
37.80107	3267.099		-53.23332	
37.85518	3264.168		-53.25129	
37.90928	3261.264		-53.27105	
37.96339	3258.386		-53.29188	
38.01749	3255.535		-53.31305	
38.0716	3252.71		-53.33376	
38.1257	3249.909		-53.35326	
38.17981	3247.126		-53.37084	
38.23391	3244.353		-53.38587	
38.28802	3241.579		-53.39783	
38.34212	3238.796		-53.40627	
38.39623	3235.992		-53.41087	
38.45034	3233.161		-53.41137	
38.50444	3230.298		-53.4076	
38.55855	3227.406		-53.39949	
38.61265	3224.487		-53.38709	
38.66676	3221.542		-53.3705	
38.72086	3218.578		-53.34989	
38.77497	3215.609		-53.32546	
38.82907	3212.65		-53.29742	
38.88318	3209.711		-53.266	
38.93729	3206.795		-53.23143	
38.99139	3203.901		-53.19398	
39.0455	3201.021		-53.15398	
39.0996	3198.147		-53.11174	
39.15371	3195.273		-53.0676	
39.20781	3192.391		-53.02194	
39.26192	3189.493		-52.97515	
39.31602	3186.581		-52.92764	
39.37013	3183.649		-52.87985	
39.42424	3180.698		-52.83225	
39.47834	3177.726		-52.78527	
39.53245	3174.735		-52.73933	
39.58656	3171.736		-52.69483	
39.64066	3168.745		-52.65213	
39.69477	3165.781		-52.61154	
39.74887	3162.856		-52.57328	
39.80297	3159.98		-52.53753	
39.85708	3157.151		-52.50435	
39.91119	3154.357		-52.47379	
39.96529	3151.581		-52.44575	
40.0194	3148.813		-52.42011	
40.07351	3146.053		-52.39669	
40.12761	3143.299		-52.37523	
40.18172	3140.549		-52.35545	
40.23582	3137.806		-52.33704	
40.28993	3135.075		-52.3197	
40.34403	3132.355		-52.30309	
40.39814	3129.639		-52.28687	
40.45224	3126.918		-52.27071	
40.50635	3124.189		-52.25433	
40.56046	3121.454		-52.23746	
40.61456	3118.71		-52.21988	
40.66867	3115.955		-52.20141	
40.72277	3113.187		-52.18183	
40.77688	3110.406		-52.16091	
40.83098	3107.613		-52.13834	
40.88509	3104.806		-52.1138	
40.93919	3101.994		-52.08697	
40.9933	3099.182		-52.05749	
41.04741	3096.371		-52.02505	
41.10151	3093.558		-51.98936	
41.15562	3090.736		-51.95022	
41.20972	3087.907		-51.90745	
41.26383	3085.074		-51.86097	
41.31793	3082.252		-51.81083	
41.37204	3079.451		-51.75713	
41.42614	3076.685		-51.70009	
41.48025	3073.948		-51.64	
41.53436	3071.227		-51.57721	
41.58846	3068.51		-51.51214	
41.64257	3065.785		-51.44524	
41.69667	3063.045		-51.37699	
41.75078	3060.283		-51.30787	
41.80488	3057.503		-51.23841	
41.85899	3054.703		-51.16909	
41.91309	3051.876		-51.10041	
41.9672	3049.016		-51.03282	
42.02131	3046.122		-50.96672	
42.07541	3043.201		-50.90243	
42.12952	3040.258		-50.8402	
42.18362	3037.301		-50.78021	
42.23773	3034.341		-50.72262	
42.29183	3031.388		-50.66753	
42.34594	3028.445		-50.615	
42.40004	3025.506		-50.56509	
42.45415	3022.565		-50.5178	
42.50826	3019.624		-50.47309	
42.56236	3016.683		-50.43092	
42.61647	3013.748		-50.39117	
42.67057	3010.827		-50.35368	
42.72468	3007.929		-50.31823	
42.77879	3005.061		-50.28451	
42.83289	3002.229		-50.25219	
42.88699	2999.448		-50.22089	
42.9411	2996.728		-50.1902	
42.9952	2994.087		-50.15967	
43.04931	2991.53		-50.12887	
43.10342	2989.052		-50.09738	
43.15752	2986.642		-50.06481	
43.21163	2984.283		-50.03083	
43.26574	2981.96		-49.99516	
43.31984	2979.655		-49.95765	
43.37395	2977.351		-49.91817	
43.42805	2975.034		-49.87676	
43.48216	2972.689		-49.8335	
43.53626	2970.311		-49.78858	
43.59037	2967.896		-49.74225	
43.64447	2965.441		-49.69481	
43.69858	2962.945		-49.64663	
43.75269	2960.416		-49.59814	
43.80679	2957.859		-49.54983	
43.8609	2955.277		-49.50219	
43.915	2952.668		-49.45572	
43.96911	2950.03		-49.41089	
44.02321	2947.358		-49.36814	
44.07732	2944.646		-49.32784	
44.13142	2941.891		-49.29026	
44.18553	2939.098		-49.25565	
44.23964	2936.277		-49.22421	
44.29374	2933.433		-49.19608	
44.34785	2930.568		-49.17134	
44.40195	2927.694		-49.15004	
44.45606	2924.819		-49.13213	
44.51016	2921.947		-49.11751	
44.56427	2919.079		-49.10603	
44.61837	2916.226		-49.09748	
44.67248	2913.4		-49.09166	
44.72659	2910.604		-49.0883	
44.78069	2907.835		-49.08709	
44.8348	2905.089		-49.08768	
44.8889	2902.357		-49.08963	
44.94301	2899.639		-49.09245	
44.99711	2896.934		-49.09556	
45.05122	2894.242		-49.09838	
45.10532	2891.567		-49.10032	
45.15943	2888.911		-49.10075	
45.21354	2886.277		-49.09912	
45.26764	2883.666		-49.09495	
45.32175	2881.079		-49.0878	
45.37585	2878.516		-49.0773	
45.42996	2875.964		-49.06321	
45.48406	2873.414		-49.0453	
45.53817	2870.859		-49.02343	
45.59227	2868.294		-48.99755	
45.64638	2865.708		-48.96768	
45.70049	2863.1		-48.9339	
45.75459	2860.46		-48.89637	
45.8087	2857.79		-48.85538	
45.8628	2855.087		-48.81125	
45.91691	2852.359		-48.76435	
45.97102	2849.616		-48.71511	
46.02512	2846.87		-48.66391	
46.07922	2844.13		-48.61116	
46.13333	2841.405		-48.55721	
46.18744	2838.701		-48.50245	
46.24154	2836.024		-48.44717	
46.29565	2833.374		-48.39166	
46.34975	2830.75		-48.3361	
46.40386	2828.155		-48.28062	
46.45797	2825.582		-48.22527	
46.51207	2823.018		-48.17006	
46.56618	2820.455		-48.11499	
46.62028	2817.889		-48.06005	
46.67439	2815.328		-48.00525	
46.72849	2812.778		-47.9506	
46.7826	2810.243		-47.8961	
46.8367	2807.725		-47.84177	
46.89081	2805.226		-47.78758	
46.94492	2802.745		-47.73353	
46.99902	2800.275		-47.67961	
47.05313	2797.809		-47.6258	
47.10723	2795.336		-47.57212	
47.16134	2792.85		-47.51855	
47.21544	2790.347		-47.46516	
47.26955	2787.824		-47.41201	
47.32365	2785.281		-47.35919	
47.37776	2782.722		-47.30679	
47.43187	2780.15		-47.25492	
47.48597	2777.565		-47.20374	
47.54008	2774.969		-47.15338	
47.59418	2772.365		-47.10405	
47.64829	2769.755		-47.05597	
47.70239	2767.141		-47.00938	
47.7565	2764.522		-46.96456	
47.8106	2761.896		-46.92176	
47.86471	2759.262		-46.88123	
47.91882	2756.621		-46.8432	
47.97292	2753.976		-46.80781	
48.02703	2751.335		-46.77517	
48.08113	2748.714		-46.74533	
48.13524	2746.12		-46.7183	
48.18934	2743.558		-46.69404	
48.24345	2741.028		-46.67241	
48.29755	2738.523		-46.65318	
48.35166	2736.039		-46.63608	
48.40577	2733.569		-46.62072	
48.45987	2731.106		-46.60671	
48.51398	2728.645		-46.59361	
48.56808	2726.183		-46.58098	
48.62219	2723.719		-46.56839	
48.67629	2721.25		-46.55543	
48.7304	2718.774		-46.54173	
48.7845	2716.293		-46.52697	
48.83861	2713.811		-46.51089	
48.89272	2711.335		-46.49332	
48.94682	2708.878		-46.47419	
49.00093	2706.452		-46.45353	
49.05503	2704.055		-46.43146	
49.10914	2701.685		-46.40817	
49.16325	2699.333		-46.3839	
49.21735	2696.984		-46.35892	
49.27145	2694.621		-46.33356	
49.32556	2692.234		-46.30812	
49.37967	2689.818		-46.28291	
49.43377	2687.362		-46.25824	
49.48788	2684.863		-46.23447	
49.54198	2682.326		-46.21193	
49.59609	2679.763		-46.19105	
49.6502	2677.188		-46.17221	
49.7043	2674.615		-46.15583	
49.75841	2672.056		-46.14231	
49.81251	2669.511		-46.13203	
49.86662	2666.973		-46.12528	
49.92072	2664.433		-46.12233	
49.97483	2661.888		-46.12333	
50.02893	2659.33		-46.12835	
50.08304	2656.752		-46.13734	
50.13715	2654.145		-46.15017	
50.19125	2651.517		-46.16658	
50.24536	2648.876		-46.18621	
50.29946	2646.23		-46.20861	
50.35357	2643.587		-46.23328	
50.40767	2640.955		-46.25969	
50.46178	2638.345		-46.28728	
50.51588	2635.773		-46.31546	
50.56999	2633.249		-46.34367	
50.6241	2630.778		-46.37136	
50.6782	2628.354		-46.39798	
50.73231	2625.968		-46.42298	
50.78641	2623.609		-46.44582	
50.84052	2621.27		-46.46598	
50.89462	2618.939		-46.48301	
50.94873	2616.605		-46.49656	
51.00283	2614.261		-46.50632	
51.05694	2611.901		-46.51208	
51.11105	2609.525		-46.51368	
51.16515	2607.134		-46.51101	
51.21926	2604.728		-46.50402	
51.27336	2602.313		-46.49267	
51.32747	2599.893		-46.47697	
51.38157	2597.468		-46.45697	
51.43568	2595.027		-46.43279	
51.48978	2592.558		-46.40462	
51.54389	2590.049		-46.37272	
51.598	2587.494		-46.33739	
51.6521	2584.896		-46.29897	
51.70621	2582.267		-46.25784	
51.76031	2579.616		-46.21439	
51.81442	2576.953		-46.16901	
51.86852	2574.28		-46.12208	
51.92263	2571.603		-46.07394	
51.97673	2568.932		-46.02493	
52.03084	2566.269		-45.97528	
52.08495	2563.606		-45.92522	
52.13905	2560.937		-45.87487	
52.19316	2558.26		-45.82434	
52.24726	2555.578		-45.77364	
52.30137	2552.898		-45.72276	
52.35548	2550.225		-45.67162	
52.40958	2547.571		-45.62013	
52.46368	2544.951		-45.56818	
52.51779	2542.379		-45.51563	
52.5719	2539.86		-45.46235	
52.626	2537.397		-45.40823	
52.68011	2534.987		-45.35311	
52.73421	2532.624		-45.29684	
52.78832	2530.295		-45.23926	
52.84243	2527.985		-45.18023	
52.89653	2525.676		-45.11963	
52.95064	2523.352		-45.05733	
53.00474	2521.006		-44.99325	
53.05885	2518.632		-44.92728	
53.11295	2516.229		-44.85935	
53.16706	2513.799		-44.78939	
53.22116	2511.35		-44.71732	
53.27527	2508.898		-44.64314	
53.32938	2506.462		-44.56684	
53.38348	2504.056		-44.48857	
53.43759	2501.685		-44.40851	
53.49169	2499.341		-44.32693	
53.5458	2497.015		-44.24416	
53.5999	2494.702		-44.16057	
53.65401	2492.394		-44.07652	
53.70811	2490.085		-43.99244	
53.76222	2487.772		-43.90877	
53.81633	2485.454		-43.82596	
53.87043	2483.132		-43.74451	
53.92454	2480.813		-43.6649	
53.97864	2478.499		-43.58763	
54.03275	2476.191		-43.51314	
54.08685	2473.89		-43.44189	
54.14096	2471.599		-43.37427	
54.19506	2469.317		-43.31065	
54.24917	2467.045		-43.25134	
54.30328	2464.773		-43.19658	
54.35738	2462.499		-43.14657	
54.41149	2460.219		-43.10141	
54.46559	2457.933		-43.06114	
54.5197	2455.636		-43.02575	
54.5738	2453.324		-42.99513	
54.62791	2451		-42.96912	
54.68201	2448.666		-42.9475	
54.73612	2446.331		-42.92999	
54.79023	2444.003		-42.9163	
54.84433	2441.684		-42.90614	
54.89844	2439.365		-42.89918	
54.95255	2437.038		-42.89509	
55.00665	2434.705		-42.89353	
55.06075	2432.367		-42.89414	
55.11486	2430.018		-42.89654	
55.16896	2427.656		-42.90033	
55.22307	2425.282		-42.90508	
55.27718	2422.905		-42.91037	
55.33128	2420.537		-42.91577	
55.38539	2418.192		-42.92086	
55.4395	2415.877		-42.92518	
55.4936	2413.596		-42.92828	
55.54771	2411.348		-42.92972	
55.60181	2409.13		-42.92902	
55.65591	2406.935		-42.92576	
55.71002	2404.75		-42.91955	
55.76413	2402.564		-42.91008	
55.81823	2400.361		-42.89709	
55.87234	2398.132		-42.88043	
55.92645	2395.874		-42.85997	
55.98055	2393.584		-42.83561	
56.03466	2391.262		-42.80732	
56.08876	2388.914		-42.77508	
56.14287	2386.551		-42.73897	
56.19697	2384.186		-42.69915	
