T[Â°C]	330nm [counts / mm]	S.D.	First derivative	S.D. of first derivative
20.00033	4901.893		-70.73909	
20.05443	4898.045		-70.63952	
20.10854	4894.203		-70.54031	
20.16265	4890.365		-70.44146	
20.21675	4886.531		-70.34302	
20.27086	4882.703		-70.24501	
20.32496	4878.88		-70.14748	
20.37907	4875.065		-70.05043	
20.43317	4871.259		-69.95391	
20.48728	4867.463		-69.85796	
20.54138	4863.677		-69.76263	
20.59549	4859.9		-69.66792	
20.6496	4856.133		-69.57389	
20.7037	4852.374		-69.48058	
20.75781	4848.618		-69.388	
20.81191	4844.862		-69.29622	
20.86602	4841.102		-69.20525	
20.92012	4837.332		-69.11514	
20.97423	4833.576		-69.02592	
21.02833	4829.787		-68.93761	
21.08244	4825.967		-68.85024	
21.13655	4822.125		-68.76385	
21.19065	4818.283		-68.67844	
21.24476	4814.456		-68.59403	
21.29886	4810.656		-68.51066	
21.35297	4806.891		-68.42831	
21.40707	4803.167		-68.34698	
21.46118	4799.478		-68.26667	
21.51529	4795.813		-68.18737	
21.56939	4792.16		-68.10905	
21.6235	4788.504		-68.03168	
21.6776	4784.824		-67.95525	
21.73171	4781.118		-67.87968	
21.78581	4777.387		-67.80493	
21.83992	4773.644		-67.73094	
21.89402	4769.906		-67.65763	
21.94813	4766.19		-67.58491	
22.00224	4762.512		-67.51266	
22.05634	4758.878		-67.44074	
22.11045	4755.288		-67.369	
22.16455	4751.737		-67.29726	
22.21866	4748.22		-67.22527	
22.27276	4744.742		-67.15279	
22.32687	4741.304		-67.07957	
22.38097	4737.909		-67.00538	
22.43508	4734.551		-66.93008	
22.48919	4731.22		-66.85375	
22.54329	4727.897		-66.77673	
22.5974	4724.568		-66.69971	
22.6515	4721.226		-66.66615	
22.70561	4717.864		-66.63441	
22.75971	4714.476		-66.60452	
22.81382	4711.059		-66.57651	
22.86792	4707.616		-66.55046	
22.92203	4704.147		-66.52644	
22.97614	4700.652		-66.50448	
23.03024	4697.133		-66.48456	
23.08435	4693.589		-66.46661	
23.13845	4690.028		-66.45043	
23.19256	4686.449		-66.43578	
23.24666	4682.85		-66.42234	
23.30077	4679.226		-66.40976	
23.35488	4675.581		-66.39766	
23.40898	4671.918		-66.38569	
23.46309	4668.234		-66.37349	
23.51719	4664.54		-66.3607	
23.5713	4660.846		-66.34697	
23.6254	4657.16		-66.33194	
23.67951	4653.482		-66.3153	
23.73361	4649.809		-66.29672	
23.78772	4646.133		-66.27595	
23.84183	4642.446		-66.25274	
23.89593	4638.739		-66.22691	
23.95004	4635.012		-66.19839	
24.00414	4631.275		-66.16712	
24.05825	4627.544		-66.13314	
24.11235	4623.831		-66.09649	
24.16646	4620.142		-66.05726	
24.22056	4616.476		-66.01553	
24.27467	4612.822		-65.97139	
24.32878	4609.178		-65.92496	
24.38288	4605.54		-65.87635	
24.43699	4601.903		-65.82569	
24.49109	4598.261		-65.77311	
24.5452	4594.617		-65.71873	
24.5993	4590.977		-65.66267	
24.65341	4587.35		-65.60503	
24.70752	4583.731		-65.54594	
24.76162	4580.113		-65.48558	
24.81573	4576.495		-65.42417	
24.86983	4572.876		-65.362	
24.92394	4569.255		-65.29937	
24.97804	4565.629		-65.23657	
25.03215	4562		-65.17382	
25.08625	4558.369		-65.1113	
25.14036	4554.743		-65.04907	
25.19447	4551.125		-64.98717	
25.24857	4547.523		-64.92554	
25.30268	4543.939		-64.86406	
25.35678	4540.375		-64.80256	
25.41089	4536.833		-64.74088	
25.46499	4533.313		-64.67882	
25.5191	4529.82		-64.61621	
25.5732	4526.365		-64.55289	
25.62731	4522.959		-64.48871	
25.68142	4519.62		-64.42359	
25.73552	4516.356		-64.35747	
25.78963	4513.172		-64.29034	
25.84373	4510.053		-64.22224	
25.89784	4506.973		-64.15331	
25.95194	4503.899		-64.08367	
26.00605	4500.805		-64.01354	
26.06015	4497.669		-63.94314	
26.11426	4494.478		-63.87271	
26.16837	4491.231		-63.80257	
26.22247	4487.938		-63.73305	
26.27658	4484.613		-63.66452	
26.33068	4481.279		-63.59742	
26.38479	4477.948		-63.53217	
26.43889	4474.614		-63.46924	
26.493	4471.268		-63.40909	
26.54711	4467.894		-63.35217	
26.60121	4464.487		-63.29887	
26.65532	4461.044		-63.24957	
26.70942	4457.557		-63.20455	
26.76353	4454.026		-63.16405	
26.81763	4450.455		-63.12826	
26.87174	4446.847		-63.09728	
26.92584	4443.206		-63.07111	
26.97995	4439.526		-63.04963	
27.03406	4435.806		-63.03262	
27.08816	4432.056		-63.01975	
27.14227	4428.3		-63.0106	
27.19637	4424.568		-63.00467	
27.25048	4420.883		-63.00137	
27.30458	4417.264		-63	
27.35869	4413.715		-62.99979	
27.41279	4410.234		-62.99996	
27.4669	4406.817		-62.99972	
27.52101	4403.459		-62.99829	
27.57511	4400.146		-62.99495	
27.62922	4396.862		-62.98903	
27.68332	4393.593		-62.97997	
27.73743	4390.338		-62.96725	
27.79153	4387.095		-62.95043	
27.84564	4383.864		-62.92916	
27.89975	4380.637		-62.90314	
27.95385	4377.407		-62.87215	
28.00796	4374.165		-62.83608	
28.06206	4370.903		-62.79494	
28.11617	4367.613		-62.74889	
28.17027	4364.29		-62.6982	
28.22438	4360.929		-62.64333	
28.27848	4357.53		-62.58482	
28.33259	4354.106		-62.52332	
28.3867	4350.676		-62.45951	
28.4408	4347.249		-62.39411	
28.49491	4343.833		-62.32783	
28.54901	4340.432		-62.26139	
28.60312	4337.046		-62.1955	
28.65722	4333.668		-62.13084	
28.71133	4330.28		-62.06805	
28.76543	4326.865		-62.0077	
28.81954	4323.411		-61.9503	
28.87365	4319.917		-61.89628	
28.92775	4316.388		-61.84597	
28.98186	4312.83		-61.79959	
29.03596	4309.256		-61.75729	
29.09007	4305.68		-61.71909	
29.14417	4302.126		-61.68496	
29.19828	4298.621		-61.65477	
29.25238	4295.182		-61.62832	
29.30649	4291.812		-61.6053	
29.3606	4288.506		-61.58537	
29.4147	4285.262		-61.5681	
29.46881	4282.071		-61.55305	
29.52291	4278.925		-61.53971	
29.57702	4275.813		-61.52755	
29.63112	4272.721		-61.51602	
29.68523	4269.635		-61.50462	
29.73934	4266.544		-61.49287	
29.79344	4263.446		-61.48035	
29.84755	4260.346		-61.46667	
29.90165	4257.246		-61.45156	
29.95576	4254.139		-61.4348	
30.00986	4251.012		-61.41629	
30.06397	4247.862		-61.39602	
30.11807	4244.684		-61.37409	
30.17218	4241.476		-61.35064	
30.22629	4238.237		-61.32584	
30.28039	4234.976		-61.2999	
30.3345	4231.695		-61.273	
30.3886	4228.391		-61.24527	
30.44271	4225.061		-61.21682	
30.49681	4221.696		-61.18774	
30.55092	4218.301		-61.15811	
30.60502	4214.881		-61.12799	
30.65913	4211.44		-61.09743	
30.71324	4207.982		-61.06651	
30.76734	4204.507		-61.03527	
30.82145	4201.016		-61.00382	
30.87555	4197.51		-60.97221	
30.92966	4193.995		-60.94054	
30.98376	4190.481		-60.90889	
31.03787	4186.972		-60.87732	
31.09198	4183.472		-60.84589	
31.14608	4179.999		-60.81466	
31.20019	4176.569		-60.78369	
31.25429	4173.192		-60.75304	
31.3084	4169.872		-60.72273	
31.3625	4166.613		-60.69275	
31.41661	4163.413		-60.66302	
31.47071	4160.257		-60.63344	
31.52482	4157.125		-60.60384	
31.57893	4153.999		-60.57399	
31.63303	4150.856		-60.54368	
31.68714	4147.673		-60.51267	
31.74124	4144.442		-60.48077	
31.79535	4141.163		-60.44783	
31.84945	4137.842		-60.41373	
31.90356	4134.495		-60.37839	
31.95766	4131.14		-60.3418	
32.01177	4127.794		-60.30402	
32.06588	4124.475		-60.26513	
32.11998	4121.187		-60.22523	
32.17409	4117.927		-60.18441	
32.22819	4114.682		-60.14274	
32.2823	4111.434		-60.1003	
32.3364	4108.166		-60.05716	
32.39051	4104.873		-60.01337	
32.44461	4101.553		-59.96898	
32.49872	4098.204		-59.92398	
32.55283	4094.84		-59.87835	
32.60693	4091.479		-59.83202	
32.66104	4088.143		-59.78491	
32.71514	4084.848		-59.73699	
32.76925	4081.615		-59.68822	
32.82335	4078.456		-59.63867	
32.87746	4075.371		-59.58846	
32.93156	4072.361		-59.53776	
32.98567	4069.413		-59.4868	
33.03978	4066.5		-59.43586	
33.09388	4063.592		-59.38524	
33.14799	4060.67		-59.33528	
33.2021	4057.72		-59.2863	
33.2562	4054.731		-59.23862	
33.31031	4051.695		-59.19247	
33.36441	4048.607		-59.14808	
33.41851	4045.472		-59.10564	
33.47262	4042.297		-59.06528	
33.52673	4039.098		-59.02705	
33.58083	4035.887		-58.99094	
33.63494	4032.67		-58.95686	
33.68904	4029.449		-58.92464	
33.74315	4026.221		-58.89408	
33.79726	4022.973		-58.86492	
33.85136	4019.696		-58.83685	
33.90547	4016.376		-58.80956	
33.95957	4013.001		-58.78272	
34.01368	4009.569		-58.75597	
34.06778	4006.092		-58.72898	
34.12189	4002.599		-58.70142	
34.17599	3999.117		-58.67298	
34.2301	3995.674		-58.64341	
34.28421	3992.285		-58.61251	
34.33831	3988.96		-58.58012	
34.39242	3985.707		-58.54616	
34.44652	3982.525		-58.51051	
34.50063	3979.41		-58.4731	
34.55473	3976.348		-58.43382	
34.60884	3973.329		-58.39256	
34.66294	3970.343		-58.34925	
34.71705	3967.38		-58.30379	
34.77116	3964.427		-58.2561	
34.82526	3961.47		-58.20614	
34.87937	3958.501		-58.15388	
34.93347	3955.517		-58.09933	
34.98758	3952.51		-58.04254	
35.04168	3949.481		-57.98362	
35.09579	3946.433		-57.92274	
35.14989	3943.367		-57.86018	
35.204	3940.281		-57.79623	
35.25811	3937.172		-57.7313	
35.31221	3934.035		-57.66583	
35.36632	3930.865		-57.60034	
35.42042	3927.654		-57.53536	
35.47453	3924.4		-57.47137	
35.52863	3921.108		-57.40879	
35.58274	3917.787		-57.34793	
35.63684	3914.445		-57.289	
35.69095	3911.088		-57.23212	
35.74506	3907.724		-57.17737	
35.79916	3904.369		-57.12477	
35.85327	3901.04		-57.07428	
35.90737	3897.751		-57.02583	
35.96148	3894.515		-56.9793	
36.01558	3891.342		-56.93455	
36.06969	3888.233		-56.89138	
36.12379	3885.196		-56.8496	
36.1779	3882.232		-56.80903	
36.23201	3879.343		-56.76949	
36.28611	3876.52		-56.73079	
36.34022	3873.748		-56.69277	
36.39433	3871.016		-56.65529	
36.44843	3868.306		-56.61827	
36.50254	3865.593		-56.5817	
36.55664	3862.853		-56.54564	
36.61074	3860.074		-56.51018	
36.66485	3857.251		-56.47547	
36.71896	3854.383		-56.44167	
36.77306	3851.476		-56.40894	
36.82717	3848.54		-56.37742	
36.88128	3845.576		-56.34723	
36.93538	3842.585		-56.31847	
36.98949	3839.562		-56.29126	
37.04359	3836.511		-56.26573	
37.0977	3833.434		-56.24205	
37.1518	3830.336		-56.22041	
37.20591	3827.217		-56.20104	
37.26001	3824.072		-56.18421	
37.31412	3820.902		-56.1702	
37.36823	3817.704		-56.15927	
37.42233	3814.484		-56.1516	
37.47644	3811.248		-56.14732	
37.53054	3808.009		-56.1464	
37.58465	3804.774		-56.14872	
37.63875	3801.552		-56.15407	
37.69286	3798.354		-56.16216	
37.74696	3795.194		-56.17262	
37.80107	3792.077		-56.18501	
37.85518	3788.992		-56.19887	
37.90928	3785.931		-56.21368	
37.96339	3782.895		-56.22887	
38.01749	3779.888		-56.24379	
38.0716	3776.919		-56.25777	
38.1257	3774.001		-56.27013	
38.17981	3771.132		-56.28015	
38.23391	3768.303		-56.28711	
38.28802	3765.492		-56.29029	
38.34212	3762.679		-56.28905	
38.39623	3759.84		-56.28284	
38.45034	3756.956		-56.27121	
38.50444	3754.02		-56.25384	
38.55855	3751.036		-56.23055	
38.61265	3748.014		-56.20128	
38.66676	3744.953		-56.16608	
38.72086	3741.857		-56.12506	
38.77497	3738.735		-56.07841	
38.82907	3735.602		-56.02639	
38.88318	3732.471		-55.9693	
38.93729	3729.348		-55.9075	
38.99139	3726.231		-55.84147	
39.0455	3723.111		-55.77173	
39.0996	3719.978		-55.69888	
39.15371	3716.83		-55.62353	
39.20781	3713.67		-55.54633	
39.26192	3710.5		-55.46792	
39.31602	3707.32		-55.38894	
39.37013	3704.129		-55.30998	
39.42424	3700.933		-55.23166	
39.47834	3697.735		-55.15454	
39.53245	3694.536		-55.07915	
39.58656	3691.34		-55.00595	
39.64066	3688.154		-54.93539	
39.69477	3684.997		-54.86778	
39.74887	3681.894		-54.8034	
39.80297	3678.858		-54.74244	
39.85708	3675.884		-54.68503	
39.91119	3672.959		-54.63124	
39.96529	3670.067		-54.58107	
40.0194	3667.197		-54.53446	
40.07351	3664.349		-54.49127	
40.12761	3661.522		-54.45129	
40.18172	3658.714		-54.41422	
40.23582	3655.926		-54.37975	
40.28993	3653.16		-54.3475	
40.34403	3650.407		-54.31714	
40.39814	3647.653		-54.28831	
40.45224	3644.885		-54.26067	
40.50635	3642.105		-54.23392	
40.56046	3639.317		-54.20782	
40.61456	3636.524		-54.18212	
40.66867	3633.726		-54.15663	
40.72277	3630.921		-54.13114	
40.77688	3628.105		-54.10542	
40.83098	3625.281		-54.07924	
40.88509	3622.451		-54.05233	
40.93919	3619.615		-54.02449	
40.9933	3616.776		-53.9955	
41.04741	3613.935		-53.96518	
41.10151	3611.091		-53.93343	
41.15562	3608.249		-53.90019	
41.20972	3605.418		-53.86547	
41.26383	3602.604		-53.82933	
41.31793	3599.81		-53.79195	
41.37204	3597.031		-53.75356	
41.42614	3594.268		-53.71449	
41.48025	3591.506		-53.67508	
41.53436	3588.74		-53.63571	
41.58846	3585.955		-53.59675	
41.64257	3583.138		-53.55856	
41.69667	3580.286		-53.52148	
41.75078	3577.398		-53.48586	
41.80488	3574.476		-53.45203	
41.85899	3571.516		-53.4203	
41.91309	3568.51		-53.39096	
41.9672	3565.458		-53.36424	
42.02131	3562.363		-53.34032	
42.07541	3559.236		-53.31932	
42.12952	3556.091		-53.30127	
42.18362	3552.945		-53.28619	
42.23773	3549.813		-53.27399	
42.29183	3546.702		-53.26458	
42.34594	3543.604		-53.25782	
42.40004	3540.508		-53.25357	
42.45415	3537.403		-53.2516	
42.50826	3534.278		-53.25172	
42.56236	3531.125		-53.25371	
42.61647	3527.954		-53.25732	
42.67057	3524.781		-53.26224	
42.72468	3521.632		-53.26806	
42.77879	3518.53		-53.27427	
42.83289	3515.496		-53.28024	
42.88699	3512.542		-53.28523	
42.9411	3509.668		-53.28846	
42.9952	3506.876		-53.2891	
43.04931	3504.156		-53.28637	
43.10342	3501.498		-53.27956	
43.15752	3498.886		-53.26802	
43.21163	3496.308		-53.25124	
43.26574	3493.752		-53.22879	
43.31984	3491.214		-53.20037	
43.37395	3488.685		-53.16578	
43.42805	3486.153		-53.12492	
43.48216	3483.61		-53.07781	
43.53626	3481.047		-53.02459	
43.59037	3478.452		-52.9655	
43.64447	3475.815		-52.90094	
43.69858	3473.133		-52.83144	
43.75269	3470.409		-52.75765	
43.80679	3467.649		-52.68034	
43.8609	3464.857		-52.60028	
43.915	3462.044		-52.51822	
43.96911	3459.209		-52.4349	
44.02321	3456.35		-52.351	
44.07732	3453.457		-52.26715	
44.13142	3450.528		-52.18397	
44.18553	3447.569		-52.10199	
44.23964	3444.583		-52.02174	
44.29374	3441.578		-51.94373	
44.34785	3438.558		-51.86841	
44.40195	3435.534		-51.79622	
44.45606	3432.515		-51.7275	
44.51016	3429.506		-51.66259	
44.56427	3426.503		-51.60176	
44.61837	3423.505		-51.54522	
44.67248	3420.508		-51.49308	
44.72659	3417.518		-51.44538	
44.78069	3414.546		-51.40202	
44.8348	3411.6		-51.36275	
44.8889	3408.675		-51.3272	
44.94301	3405.771		-51.29486	
44.99711	3402.888		-51.26511	
45.05122	3400.028		-51.23725	
45.10532	3397.198		-51.21058	
45.15943	3394.396		-51.18438	
45.21354	3391.625		-51.15795	
45.26764	3388.894		-51.13065	
45.32175	3386.211		-51.10185	
45.37585	3383.576		-51.071	
45.42996	3380.983		-51.03758	
45.48406	3378.422		-51.00119	
45.53817	3375.881		-50.96156	
45.59227	3373.345		-50.91854	
45.64638	3370.798		-50.87218	
45.70049	3368.229		-50.82267	
45.75459	3365.627		-50.77033	
45.8087	3362.988		-50.71559	
45.8628	3360.319		-50.65893	
45.91691	3357.63		-50.6009	
45.97102	3354.931		-50.54207	
46.02512	3352.23		-50.48301	
46.07922	3349.539		-50.42428	
46.13333	3346.865		-50.36641	
46.18744	3344.21		-50.30989	
46.24154	3341.566		-50.25518	
46.29565	3338.925		-50.2027	
46.34975	3336.273		-50.15279	
46.40386	3333.605		-50.10574	
46.45797	3330.918		-50.06176	
46.51207	3328.211		-50.02108	
46.56618	3325.485		-49.98388	
46.62028	3322.736		-49.95029	
46.67439	3319.966		-49.92045	
46.72849	3317.182		-49.89442	
46.7826	3314.394		-49.87223	
46.8367	3311.611		-49.85384	
46.89081	3308.849		-49.83916	
46.94492	3306.118		-49.82806	
46.99902	3303.422		-49.82029	
47.05313	3300.756		-49.81558	
47.10723	3298.114		-49.81359	
47.16134	3295.485		-49.81394	
47.21544	3292.854		-49.81618	
47.26955	3290.216		-49.81985	
47.32365	3287.568		-49.82444	
47.37776	3284.909		-49.82941	
47.43187	3282.24		-49.83423	
47.48597	3279.573		-49.83839	
47.54008	3276.913		-49.84142	
47.59418	3274.261		-49.84295	
47.64829	3271.612		-49.84267	
47.70239	3268.949		-49.84042	
47.7565	3266.259		-49.83609	
47.8106	3263.539		-49.82965	
47.86471	3260.793		-49.82115	
47.91882	3258.028		-49.81067	
47.97292	3255.248		-49.79832	
48.02703	3252.462		-49.78419	
48.08113	3249.683		-49.76836	
48.13524	3246.919		-49.75089	
48.18934	3244.173		-49.73183	
48.24345	3241.441		-49.71118	
48.29755	3238.72		-49.68898	
48.35166	3236.007		-49.66523	
48.40577	3233.302		-49.63995	
48.45987	3230.601		-49.61318	
48.51398	3227.894		-49.58493	
48.56808	3225.18		-49.55518	
48.62219	3222.457		-49.52391	
48.67629	3219.73		-49.49106	
48.7304	3217.002		-49.45658	
48.7845	3214.274		-49.42043	
48.83861	3211.543		-49.38258	
48.89272	3208.813		-49.34307	
48.94682	3206.093		-49.30196	
49.00093	3203.39		-49.25936	
49.05503	3200.704		-49.21537	
49.10914	3198.038		-49.17011	
49.16325	3195.391		-49.12367	
49.21735	3192.767		-49.07611	
49.27145	3190.166		-49.0275	
49.32556	3187.574		-48.97787	
49.37967	3184.974		-48.92725	
49.43377	3182.35		-48.87566	
49.48788	3179.699		-48.82312	
49.54198	3177.031		-48.76968	
49.59609	3174.361		-48.71545	
49.6502	3171.703		-48.66056	
49.7043	3169.058		-48.60521	
49.75841	3166.43		-48.54961	
49.81251	3163.822		-48.49406	
49.86662	3161.229		-48.43883	
49.92072	3158.648		-48.38424	
49.97483	3156.074		-48.33055	
50.02893	3153.499		-48.27803	
50.08304	3150.916		-48.2269	
50.13715	3148.32		-48.17736	
50.19125	3145.704		-48.12952	
50.24536	3143.064		-48.08348	
50.29946	3140.407		-48.03928	
50.35357	3137.743		-47.99699	
50.40767	3135.09		-47.95668	
50.46178	3132.458		-47.91841	
50.51588	3129.86		-47.88226	
50.56999	3127.295		-47.84825	
50.6241	3124.761		-47.81638	
50.6782	3122.253		-47.78661	
50.73231	3119.764		-47.75888	
50.78641	3117.282		-47.73312	
50.84052	3114.794		-47.70921	
50.89462	3112.291		-47.68708	
50.94873	3109.772		-47.66663	
51.00283	3107.236		-47.64775	
51.05694	3104.682		-47.63028	
51.11105	3102.114		-47.61403	
51.16515	3099.541		-47.59877	
51.21926	3096.975		-47.58426	
51.27336	3094.425		-47.57023	
51.32747	3091.904		-47.55641	
51.38157	3089.413		-47.54254	
51.43568	3086.944		-47.52834	
51.48978	3084.487		-47.51353	
51.54389	3082.03		-47.49791	
51.598	3079.561		-47.48125	
51.6521	3077.065		-47.46338	
51.70621	3074.537		-47.44415	
51.76031	3071.975		-47.42344	
51.81442	3069.377		-47.40112	
51.86852	3066.749		-47.37708	
51.92263	3064.099		-47.35121	
51.97673	3061.446		-47.32338	
52.03084	3058.804		-47.29351	
52.08495	3056.178		-47.26152	
52.13905	3053.566		-47.22733	
52.19316	3050.97		-47.19084	
52.24726	3048.385		-47.15196	
52.30137	3045.804		-47.11062	
52.35548	3043.218		-47.06677	
52.40958	3040.62		-47.02043	
52.46368	3038.008		-46.97166	
52.51779	3035.386		-46.92054	
52.5719	3032.76		-46.86717	
52.626	3030.133		-46.81165	
52.68011	3027.513		-46.75411	
52.73421	3024.914		-46.69471	
52.78832	3022.339		-46.63367	
52.84243	3019.786		-46.57126	
52.89653	3017.241		-46.5078	
52.95064	3014.692		-46.44361	
53.00474	3012.126		-46.37901	
53.05885	3009.542		-46.31424	
53.11295	3006.952		-46.24955	
53.16706	3004.365		-46.1851	
53.22116	3001.784		-46.12103	
53.27527	2999.207		-46.05746	
53.32938	2996.633		-45.99452	
53.38348	2994.057		-45.93233	
53.43759	2991.478		-45.87102	
53.49169	2988.9		-45.81075	
53.5458	2986.336		-45.75171	
53.5999	2983.799		-45.69409	
53.65401	2981.3		-45.63811	
53.70811	2978.841		-45.58397	
53.76222	2976.42		-45.53186	
53.81633	2974.029		-45.48194	
53.87043	2971.658		-45.43433	
53.92454	2969.301		-45.38913	
53.97864	2966.958		-45.3464	
54.03275	2964.628		-45.30618	
54.08685	2962.303		-45.26854	
54.14096	2959.973		-45.23347	
54.19506	2957.638		-45.20101	
54.24917	2955.303		-45.17112	
54.30328	2952.979		-45.1438	
54.35738	2950.677		-45.11902	
54.41149	2948.405		-45.09673	
54.46559	2946.16		-45.07689	
54.5197	2943.93		-45.0594	
54.5738	2941.701		-45.04417	
54.62791	2939.458		-45.03105	
54.68201	2937.198		-45.01987	
54.73612	2934.921		-45.01048	
54.79023	2932.627		-45.00273	
54.84433	2930.319		-44.99649	
54.89844	2927.994		-44.99168	
54.95255	2925.639		-44.98819	
55.00665	2923.243		-44.98594	
55.06075	2920.801		-44.9848	
55.11486	2918.319		-44.98465	
55.16896	2915.816		-44.98534	
55.22307	2913.309		-44.98669	
55.27718	2910.81		-44.98854	
55.33128	2908.328		-44.99069	
55.38539	2905.86		-44.99295	
55.4395	2903.403		-44.99507	
55.4936	2900.952		-44.99677	
55.54771	2898.502		-44.99778	
55.60181	2896.054		-44.9978	
55.65591	2893.607		-44.99658	
55.71002	2891.157		-44.9939	
55.76413	2888.695		-44.98955	
55.81823	2886.208		-44.98333	
55.87234	2883.685		-44.97504	
55.92645	2881.119		-44.96449	
55.98055	2878.522		-44.95147	
56.03466	2875.907		-44.93582	
56.08876	2873.287		-44.9174	
56.14287	2870.671		-44.89613	
56.19697	2868.063		-44.87194	
56.25108	2865.467		-44.84481	
