T[Â°C]	350nm [counts / mm]	S.D.	First derivative	S.D. of first derivative
20.00003	7026.18	11.67983	-101.7244	7.4537
20.05401	7020.565	12.03279	-101.6269	7.268923
20.108	7014.956	12.37458	-101.5296	7.084729
20.16199	7009.351	12.70437	-101.4326	6.901158
20.21597	7003.752	13.0222	-101.3358	6.718255
20.26996	6998.157	13.32893	-101.2393	6.536077
20.32394	6992.568	13.62463	-101.1431	6.354674
20.37793	6986.983	13.91031	-101.0472	6.174109
20.43192	6981.403	14.18644	-100.9517	5.994436
20.4859	6975.828	14.45375	-100.8564	5.815731
20.53989	6970.255	14.71377	-100.7616	5.638049
20.59388	6964.686	14.96809	-100.6671	5.461466
20.64786	6959.118	15.21773	-100.573	5.286052
20.70185	6953.551	15.46497	-100.4793	5.111883
20.75584	6947.986	15.71084	-100.3859	4.939033
20.80982	6942.423	15.95558	-100.293	4.767577
20.86381	6936.863	16.19836	-100.2006	4.597599
20.9178	6931.316	16.427	-100.1085	4.429173
20.97178	6925.798	16.60092	-100.0169	4.262387
21.02577	6920.364	16.70177	-99.92568	4.097319
21.07975	6914.943	16.83712	-99.83489	3.934058
21.13374	6909.537	17.01488	-99.74452	3.772682
21.18773	6904.147	17.22746	-99.65455	3.613289
21.24171	6898.776	17.45324	-99.56496	3.455967
21.2957	6893.422	17.6746	-99.47575	3.3008
21.34969	6888.08	17.87822	-99.38689	3.147899
21.40367	6882.744	18.06081	-99.29836	2.997358
21.45766	6877.415	18.22249	-99.21012	2.849293
21.51164	6872.104	18.36417	-99.12216	2.703813
21.56563	6866.817	18.49172	-99.03445	2.561043
21.61962	6861.555	18.6147	-98.94696	2.421131
21.6736	6856.313	18.74161	-98.85967	2.284219
21.72759	6851.083	18.88473	-98.77254	2.150486
21.78158	6845.855	19.05224	-98.68555	2.020121
21.83556	6840.62	19.24455	-98.59864	1.893364
21.88955	6835.365	19.4566	-98.51179	1.770491
21.94353	6830.082	19.67455	-98.42493	1.651839
21.99752	6824.777	19.88208	-98.33802	1.537842
22.05151	6819.462	20.05273	-98.25098	1.429052
22.1055	6814.154	20.14628	-98.16375	1.326188
22.15948	6808.868	20.13252	-98.07626	1.23021
22.21347	6803.607	20.00259	-97.98843	1.142359
22.26745	6798.374	19.76989	-97.90018	1.064228
22.32144	6793.165	19.45337	-97.8115	0.997749
22.37543	6787.971	19.07162	-97.72236	0.9450853
22.42941	6782.787	18.63688	-97.63288	0.9083166
22.4834	6777.603	18.16204	-97.5433	0.8888602
22.53739	6772.407	17.66334	-97.45414	0.8868331
22.59137	6767.189	17.15597	-97.36616	0.9007933
22.64536	6761.948	16.65314	-97.30527	0.8660865
22.69934	6756.686	16.168	-97.24767	0.8312895
22.75333	6751.409	15.70881	-97.19337	0.7960815
22.80732	6746.121	15.27912	-97.14236	0.7601473
22.8613	6740.829	14.87849	-97.09463	0.7231694
22.91529	6735.534	14.50755	-97.0501	0.6848518
22.96928	6730.244	14.17129	-97.00873	0.6449407
23.02326	6724.967	13.87486	-96.97044	0.6032634
23.07725	6719.716	13.61766	-96.93511	0.5596986
23.13124	6714.499	13.39481	-96.90263	0.5142077
23.18522	6709.313	13.19458	-96.87282	0.4667858
23.23921	6704.155	13.00964	-96.8455	0.4174944
23.29319	6699.017	12.83884	-96.82042	0.3664927
23.34718	6693.883	12.68788	-96.79735	0.3141574
23.40117	6688.736	12.56259	-96.77599	0.261358
23.45515	6683.571	12.46772	-96.75608	0.2100827
23.50914	6678.39	12.40327	-96.7373	0.1651601
23.56313	6673.187	12.36778	-96.71938	0.1376224
23.61711	6667.962	12.36037	-96.702	0.1427827
23.6711	6662.721	12.3845	-96.68494	0.1813472
23.72508	6657.479	12.44348	-96.66797	0.2400823
23.77907	6652.257	12.54399	-96.65097	0.3093123
23.83306	6647.065	12.70045	-96.63385	0.3843995
23.88704	6641.909	12.91946	-96.61655	0.4629537
23.94103	6636.779	13.19982	-96.59908	0.5434688
23.99502	6631.659	13.53261	-96.58146	0.6247941
24.049	6626.535	13.90463	-96.56377	0.7059156
24.10299	6621.396	14.29884	-96.5461	0.7858763
24.15698	6616.235	14.69162	-96.52856	0.8637142
24.21096	6611.055	15.06261	-96.51123	0.9384925
24.26495	6605.861	15.39801	-96.49422	1.009279
24.31894	6600.652	15.69056	-96.47762	1.075194
24.37292	6595.428	15.93891	-96.46153	1.135398
24.42691	6590.19	16.14808	-96.44605	1.189143
24.48089	6584.944	16.33196	-96.43126	1.235799
24.53488	6579.695	16.5042	-96.41725	1.27487
24.58887	6574.441	16.68164	-96.40413	1.306025
24.64285	6569.177	16.87731	-96.39199	1.329054
24.69684	6563.898	17.09341	-96.38088	1.343856
24.75083	6558.609	17.32301	-96.37084	1.350408
24.80481	6553.314	17.5621	-96.36189	1.348785
24.8588	6548.021	17.80459	-96.35402	1.339169
24.91278	6542.727	18.04266	-96.34724	1.321855
24.96677	6537.433	18.2729	-96.3415	1.297225
25.02076	6532.142	18.49322	-96.33672	1.265753
25.07474	6526.861	18.70029	-96.33276	1.227962
25.12873	6521.599	18.89143	-96.32947	1.184397
25.18272	6516.36	19.06006	-96.32667	1.135611
25.2367	6511.149	19.19598	-96.3242	1.08213
25.29069	6505.964	19.29368	-96.3219	1.024482
25.34468	6500.798	19.35576	-96.31957	0.9631737
25.39866	6495.647	19.39423	-96.31702	0.8987058
25.45265	6490.505	19.42029	-96.31403	0.8315687
25.50664	6485.36	19.44232	-96.31036	0.7622554
25.56062	6480.21	19.4638	-96.30585	0.6912737
25.61461	6475.05	19.48632	-96.30028	0.6191195
25.66859	6469.883	19.51371	-96.29353	0.546282
25.72258	6464.71	19.54669	-96.28546	0.4731892
25.77657	6459.534	19.58476	-96.27602	0.4001892
25.83055	6454.359	19.62807	-96.26515	0.3275492
25.88454	6449.195	19.66963	-96.25284	0.2554872
25.93853	6444.048	19.6944	-96.2391	0.1841901
25.99251	6438.922	19.68503	-96.22398	0.1138665
26.0465	6433.817	19.62633	-96.20751	0.04492549
26.10048	6428.729	19.50383	-96.18971	0.02537632
26.15447	6423.656	19.30682	-96.17053	0.09140214
26.20846	6418.587	19.02885	-96.14993	0.1569334
26.26244	6413.5	18.6748	-96.12786	0.2211783
26.31643	6408.375	18.25957	-96.10426	0.284021
26.37042	6403.19	17.80556	-96.07908	0.345376
26.4244	6397.946	17.33861	-96.05222	0.4051369
26.47839	6392.659	16.88272	-96.02365	0.4631158
26.53238	6387.346	16.46314	-95.99332	0.5190562
26.58636	6382.025	16.10036	-95.96124	0.5726264
26.64035	6376.709	15.80114	-95.92745	0.6234711
26.69433	6371.413	15.55843	-95.89202	0.6711972
26.74832	6366.149	15.36166	-95.85503	0.7154329
26.80231	6360.927	15.20084	-95.81661	0.7558446
26.85629	6355.741	15.06885	-95.77686	0.7921284
26.91028	6350.587	14.95709	-95.73591	0.8240699
26.96427	6345.456	14.85779	-95.69383	0.8515058
27.01825	6340.337	14.76283	-95.65075	0.8743813
27.07224	6335.217	14.67221	-95.6067	0.8927451
27.12623	6330.078	14.59589	-95.56173	0.9067523
27.18021	6324.909	14.54907	-95.51582	0.9166612
27.2342	6319.708	14.54159	-95.46896	0.9227934
27.28819	6314.48	14.57977	-95.42117	0.9255275
27.34217	6309.238	14.6714	-95.37245	0.925226
27.39616	6303.983	14.82475	-95.32286	0.9221938
27.45014	6298.72	15.04312	-95.27245	0.9166602
27.50413	6293.456	15.32291	-95.22131	0.9087288
27.55812	6288.207	15.65307	-95.16956	0.898406
27.6121	6282.992	16.01903	-95.11738	0.8855874
27.66609	6277.825	16.39887	-95.06494	0.8701108
27.72008	6272.706	16.76585	-95.01244	0.8518004
27.77406	6267.625	17.09706	-94.96006	0.8304806
27.82805	6262.566	17.37642	-94.9079	0.8059955
27.88203	6257.515	17.5948	-94.85605	0.7782171
27.93602	6252.456	17.75578	-94.8046	0.7470227
27.99001	6247.377	17.87066	-94.75363	0.7123512
28.04399	6242.267	17.95848	-94.70318	0.6742321
28.09798	6237.125	18.04015	-94.6533	0.6327741
28.15197	6231.954	18.13095	-94.604	0.5881856
28.20595	6226.764	18.23761	-94.55529	0.5407988
28.25994	6221.562	18.3651	-94.50718	0.4911118
28.31392	6216.358	18.51278	-94.45966	0.4398662
28.36791	6211.165	18.67072	-94.41272	0.3882134
28.4219	6205.995	18.82377	-94.36636	0.338024
28.47589	6200.854	18.95922	-94.32059	0.2923789
28.52987	6195.744	19.0669	-94.27534	0.2563277
28.58386	6190.664	19.14181	-94.23058	0.2369426
28.63784	6185.614	19.18421	-94.18616	0.2406126
28.69183	6180.602	19.19457	-94.14196	0.2680462
28.74582	6175.634	19.17303	-94.09779	0.3139919
28.7998	6170.699	19.12185	-94.05343	0.3718963
28.85379	6165.777	19.05104	-94.00861	0.4367107
28.90778	6160.853	18.97424	-93.96307	0.5049974
28.96176	6155.914	18.90096	-93.91656	0.5743547
29.01575	6150.952	18.83586	-93.8689	0.6429955
29.06973	6145.968	18.7808	-93.81994	0.7094672
29.12372	6140.962	18.73791	-93.76956	0.7725316
29.17771	6135.946	18.70243	-93.71773	0.8311123
29.23169	6130.939	18.66386	-93.66442	0.8842807
29.28568	6125.955	18.61385	-93.60973	0.9312618
29.33967	6120.996	18.55143	-93.55376	0.9714643
29.39365	6116.06	18.47231	-93.4967	1.004468
29.44764	6111.134	18.36597	-93.43878	1.029983
29.50163	6106.21	18.21687	-93.38023	1.047868
29.55561	6101.279	18.01435	-93.32133	1.058126
29.6096	6096.336	17.75927	-93.26235	1.060923
29.66358	6091.376	17.46059	-93.20354	1.05662
29.71757	6086.393	17.13269	-93.14514	1.045718
29.77156	6081.375	16.78846	-93.08731	1.028807
29.82554	6076.32	16.43082	-93.03019	1.006509
29.87953	6071.22	16.06419	-92.97385	0.9794751
29.93352	6066.074	15.69681	-92.91836	0.948305
29.9875	6060.885	15.33721	-92.86378	0.913518
30.04149	6055.662	14.99263	-92.81015	0.8754726
30.09547	6050.423	14.67181	-92.75754	0.8344175
30.14946	6045.184	14.37263	-92.70599	0.7904277
30.20345	6039.956	14.09724	-92.65557	0.7434767
30.25743	6034.753	13.84648	-92.60627	0.6934522
30.31142	6029.589	13.62072	-92.5581	0.6402252
30.36541	6024.479	13.42512	-92.51106	0.5836565
30.41939	6019.426	13.26585	-92.46518	0.5236816
30.47338	6014.42	13.14727	-92.42047	0.4603155
30.52737	6009.442	13.0729	-92.37693	0.3937075
30.58135	6004.469	13.04944	-92.3345	0.3243156
30.63534	5999.483	13.08213	-92.29308	0.2532712
30.68933	5994.481	13.16729	-92.25249	0.183777
30.74331	5989.467	13.29287	-92.2125	0.1265535
30.7973	5984.446	13.44645	-92.1728	0.1134336
30.85128	5979.427	13.6148	-92.13302	0.1621259
30.90527	5974.414	13.78422	-92.09279	0.2410023
30.95926	5969.414	13.94554	-92.05171	0.3313377
31.01324	5964.428	14.09685	-92.00945	0.4271834
31.06723	5959.458	14.2409	-91.96569	0.5260201
31.12122	5954.512	14.38519	-91.92023	0.6263067
31.1752	5949.596	14.53356	-91.87298	0.7268389
31.22919	5944.713	14.69029	-91.82395	0.8265694
31.28317	5939.865	14.86158	-91.77325	0.9245055
31.33716	5935.047	15.0558	-91.72106	1.019754
31.39115	5930.255	15.27596	-91.66756	1.11143
31.44513	5925.485	15.52323	-91.61303	1.198706
31.49912	5920.728	15.78657	-91.55772	1.280792
31.55311	5915.967	16.04649	-91.50195	1.356936
31.60709	5911.184	16.28529	-91.44604	1.426487
31.66108	5906.367	16.49505	-91.39027	1.488888
31.71507	5901.505	16.6766	-91.33493	1.543737
31.76905	5896.598	16.8279	-91.28028	1.590772
31.82304	5891.654	16.94539	-91.22652	1.629876
31.87703	5886.688	17.02866	-91.17384	1.661047
31.93101	5881.713	17.07885	-91.12241	1.684402
31.985	5876.744	17.10364	-91.07239	1.700189
32.03898	5871.793	17.12834	-91.02392	1.70875
32.09297	5866.868	17.17878	-90.97713	1.71053
32.14696	5861.96	17.27332	-90.93212	1.706032
32.20094	5857.063	17.41816	-90.88897	1.695812
32.25493	5852.171	17.60891	-90.8477	1.680464
32.30891	5847.282	17.83699	-90.80833	1.66061
32.3629	5842.395	18.09223	-90.77085	1.636871
32.41689	5837.504	18.3561	-90.73523	1.609824
32.47087	5832.6	18.60728	-90.70142	1.58
32.52486	5827.675	18.83072	-90.66934	1.547842
32.57885	5822.727	19.01799	-90.63895	1.513707
32.63284	5817.765	19.16497	-90.61015	1.477824
32.68682	5812.795	19.27497	-90.58283	1.440335
32.74081	5807.833	19.35998	-90.55688	1.401291
32.79479	5802.888	19.43259	-90.53221	1.360647
32.84878	5797.969	19.50229	-90.50871	1.318319
32.90277	5793.083	19.57666	-90.48627	1.274141
32.95675	5788.226	19.6584	-90.46481	1.227878
33.01074	5783.393	19.74315	-90.44418	1.179273
33.06472	5778.581	19.82687	-90.42429	1.128028
33.11871	5773.784	19.90473	-90.40504	1.073884
33.1727	5768.996	19.97177	-90.38636	1.016592
33.22668	5764.208	20.01975	-90.36821	0.9559923
33.28067	5759.41	20.04327	-90.35056	0.8920252
33.33466	5754.594	20.03729	-90.33341	0.8247828
33.38864	5749.756	20.00285	-90.3167	0.754586
33.44263	5744.9	19.94008	-90.30045	0.6820714
33.49662	5740.024	19.84624	-90.28464	0.6083678
33.5506	5735.135	19.716	-90.26935	0.5354252
33.60459	5730.236	19.54747	-90.25468	0.4665824
33.65857	5725.33	19.34231	-90.24084	0.4074284
33.71256	5720.412	19.10875	-90.22803	0.3665417
33.76655	5715.478	18.85823	-90.21645	0.3539353
33.82053	5710.522	18.60754	-90.20631	0.3752585
33.87452	5705.55	18.37431	-90.19784	0.4271326
33.9285	5700.564	18.17099	-90.19119	0.5008124
33.98249	5695.577	18.00517	-90.18654	0.5879943
34.03648	5690.601	17.87657	-90.18399	0.6827263
34.09047	5685.643	17.77378	-90.1836	0.7809927
34.14445	5680.706	17.68558	-90.18538	0.8800516
34.19844	5675.791	17.60613	-90.18928	0.9779494
34.25243	5670.906	17.53422	-90.19519	1.073273
34.30641	5666.059	17.47654	-90.20298	1.164998
34.3604	5661.257	17.43773	-90.21245	1.252423
34.41438	5656.495	17.42023	-90.22338	1.335084
34.46837	5651.754	17.42471	-90.23553	1.412738
34.52236	5647.017	17.45081	-90.24858	1.485316
34.57634	5642.269	17.49522	-90.26225	1.55289
34.63033	5637.5	17.55691	-90.27622	1.615685
34.68431	5632.708	17.64132	-90.29019	1.674047
34.7383	5627.896	17.75284	-90.30383	1.728393
34.79229	5623.069	17.88984	-90.31684	1.779158
34.84628	5618.239	18.04708	-90.32892	1.826737
34.90026	5613.413	18.21369	-90.33975	1.87145
34.95425	5608.599	18.37664	-90.34904	1.913518
35.00823	5603.801	18.52744	-90.35646	1.953074
35.06222	5599.019	18.66579	-90.36172	1.990117
35.11621	5594.25	18.78987	-90.36452	2.024568
35.17019	5589.489	18.89056	-90.36463	2.05629
35.22418	5584.729	18.95937	-90.36176	2.085104
35.27816	5579.962	18.99301	-90.35566	2.110838
35.33215	5575.176	18.99591	-90.34604	2.133345
35.38614	5570.358	18.97806	-90.3326	2.152509
35.44012	5565.499	18.95199	-90.31507	2.168261
35.49411	5560.594	18.93306	-90.29323	2.18056
35.5481	5555.646	18.93953	-90.2669	2.189393
35.60209	5550.662	18.98578	-90.23603	2.194742
35.65607	5545.652	19.07601	-90.20065	2.196588
35.71006	5540.626	19.20716	-90.16086	2.19493
35.76404	5535.596	19.3698	-90.11687	2.189758
35.81803	5530.578	19.55779	-90.06894	2.181081
35.87202	5525.581	19.76731	-90.01736	2.168943
35.926	5520.612	20.00208	-89.96246	2.153422
35.97999	5515.674	20.26641	-89.90458	2.13465
36.03397	5510.764	20.55768	-89.84402	2.112832
36.08796	5505.873	20.86682	-89.78107	2.08822
36.14195	5500.985	21.18702	-89.71595	2.061163
36.19593	5496.082	21.51278	-89.64886	2.032051
36.24992	5491.154	21.84129	-89.57993	2.001282
36.30391	5486.202	22.16525	-89.50932	1.969289
36.35789	5481.235	22.47972	-89.43713	1.936495
36.41188	5476.258	22.78704	-89.3635	1.903326
36.46587	5471.28	23.09068	-89.2886	1.870194
36.51985	5466.308	23.38769	-89.21255	1.837466
36.57384	5461.344	23.67318	-89.13555	1.805507
36.62782	5456.393	23.94321	-89.05775	1.774617
36.68181	5451.457	24.19921	-88.97934	1.745053
36.7358	5446.535	24.43867	-88.90053	1.716974
36.78978	5441.627	24.65449	-88.8215	1.690442
36.84377	5436.732	24.83639	-88.74243	1.665377
36.89775	5431.847	24.97226	-88.66345	1.6416
36.95174	5426.972	25.05295	-88.58462	1.618809
37.00573	5422.104	25.07708	-88.50595	1.596646
37.05972	5417.241	25.04566	-88.42744	1.574695
37.1137	5412.385	24.96067	-88.34906	1.552542
37.16769	5407.536	24.83277	-88.27076	1.529791
37.22168	5402.699	24.67393	-88.19247	1.506132
37.27566	5397.884	24.49754	-88.11407	1.481328
37.32965	5393.103	24.31451	-88.03545	1.455248
37.38363	5388.372	24.13104	-87.9565	1.427845
37.43762	5383.699	23.94759	-87.87711	1.399155
37.49161	5379.085	23.76677	-87.7972	1.36924
37.54559	5374.53	23.59586	-87.71674	1.33818
37.59958	5370.025	23.44244	-87.63576	1.306062
37.65356	5365.554	23.31317	-87.55428	1.272969
37.70755	5361.099	23.21127	-87.47242	1.239029
37.76154	5356.646	23.1413	-87.39033	1.204396
37.81553	5352.19	23.10632	-87.30818	1.169208
37.86951	5347.725	23.10518	-87.2262	1.133598
37.9235	5343.256	23.12777	-87.1446	1.097637
37.97748	5338.786	23.16473	-87.06363	1.061352
38.03147	5334.312	23.20361	-86.98354	1.024724
38.08546	5329.828	23.23458	-86.9046	0.9876463
38.13944	5325.326	23.25451	-86.82704	0.9499636
38.19343	5320.796	23.26963	-86.75108	0.9114618
38.24741	5316.232	23.2894	-86.6769	0.8718823
38.3014	5311.632	23.32174	-86.60471	0.830951
38.35539	5306.992	23.37551	-86.53471	0.7883815
38.40937	5302.315	23.45717	-86.46706	0.7439106
38.46336	5297.612	23.56605	-86.40192	0.6973307
38.51735	5292.89	23.69851	-86.33949	0.6485295
38.57133	5288.155	23.85227	-86.27988	0.5975681
38.62532	5283.415	24.0261	-86.22324	0.5446877
38.67931	5278.676	24.217	-86.16971	0.4903607
38.73329	5273.947	24.41977	-86.11939	0.4354084
38.78728	5269.232	24.62359	-86.07242	0.3811537
38.84127	5264.524	24.81655	-86.02892	0.3297317
38.89525	5259.817	24.98937	-85.98895	0.2846339
38.94924	5255.106	25.13949	-85.95251	0.251255
39.00322	5250.393	25.26479	-85.91957	0.2364507
39.05721	5245.682	25.36108	-85.89001	0.2451303
39.1112	5240.977	25.43049	-85.86365	0.2762589
39.16518	5236.272	25.48334	-85.84024	0.3243532
39.21917	5231.565	25.53571	-85.8195	0.3838496
39.27316	5226.845	25.60375	-85.80102	0.4509074
39.32714	5222.109	25.69895	-85.78437	0.5231658
39.38113	5217.359	25.82419	-85.76907	0.5991287
39.43512	5212.608	25.97482	-85.7546	0.6777754
39.4891	5207.872	26.13751	-85.74046	0.7583293
39.54309	5203.164	26.29255	-85.72617	0.8401233
39.59707	5198.488	26.42152	-85.71125	0.9225333
39.65106	5193.837	26.50947	-85.69527	1.004903
39.70505	5189.208	26.54687	-85.67786	1.086543
39.75903	5184.593	26.53942	-85.65868	1.166723
39.81302	5179.987	26.50249	-85.63745	1.244659
39.867	5175.385	26.45144	-85.61398	1.31956
39.92099	5170.781	26.40092	-85.58809	1.390656
39.97498	5166.173	26.36173	-85.55971	1.457209
40.02896	5161.558	26.33797	-85.52879	1.518557
40.08295	5156.936	26.3254	-85.49533	1.574137
40.13694	5152.313	26.31212	-85.45941	1.623499
40.19092	5147.698	26.28333	-85.42113	1.666318
40.24491	5143.099	26.23196	-85.38068	1.702398
40.2989	5138.521	26.15957	-85.33824	1.731642
40.35288	5133.966	26.06845	-85.29408	1.75407
40.40687	5129.436	25.95399	-85.24848	1.769783
40.46085	5124.927	25.80579	-85.20174	1.778962
40.51484	5120.432	25.61358	-85.15415	1.781839
40.56883	5115.936	25.37039	-85.10602	1.778675
40.62281	5111.43	25.07341	-85.0576	1.769775
40.6768	5106.912	24.72458	-85.00919	1.755448
40.73079	5102.382	24.33041	-84.96107	1.736003
40.78477	5097.835	23.90313	-84.9135	1.711732
40.83876	5093.267	23.46145	-84.86679	1.682943
40.89275	5088.676	23.01956	-84.82122	1.649933
40.94673	5084.064	22.58587	-84.77707	1.613035
41.00072	5079.434	22.16295	-84.7346	1.57258
41.05471	5074.786	21.75039	-84.69402	1.528922
41.10869	5070.128	21.34511	-84.65553	1.482401
41.16268	5065.474	20.94856	-84.61926	1.433354
41.21666	5060.833	20.56308	-84.58531	1.382119
41.27065	5056.213	20.19273	-84.55372	1.329015
41.32464	5051.616	19.84569	-84.52442	1.274329
41.37862	5047.043	19.53669	-84.49731	1.218351
41.43261	5042.494	19.283	-84.47214	1.161333
41.4866	5037.967	19.09819	-84.44866	1.103527
41.54058	5033.463	18.98726	-84.42657	1.045151
41.59457	5028.969	18.94705	-84.4055	0.9863744
41.64856	5024.475	18.96449	-84.38512	0.9273516
41.70254	5019.971	19.02662	-84.36502	0.8682153
41.75653	5015.456	19.12569	-84.34485	0.8091373
41.81051	5010.935	19.25922	-84.32423	0.7503543
41.8645	5006.42	19.42979	-84.30284	0.6922078
41.91849	5001.917	19.64304	-84.28039	0.6352357
41.97247	4997.432	19.90263	-84.25664	0.5802474
42.02646	4992.964	20.20321	-84.23135	0.5284784
42.08044	4988.507	20.53122	-84.20433	0.4817075
42.13443	4984.05	20.86934	-84.17538	0.4423707
42.18842	4979.582	21.19847	-84.14436	0.4133846
42.2424	4975.092	21.5089	-84.11115	0.3975259
42.29639	4970.577	21.79332	-84.07568	0.3964208
42.35038	4966.038	22.04478	-84.03793	0.4095693
42.40437	4961.478	22.25975	-83.99792	0.4343872
42.45835	4956.905	22.43675	-83.9557	0.4671112
42.51234	4952.325	22.57582	-83.91134	0.5038726
42.56632	4947.738	22.68286	-83.86489	0.5412556
42.62031	4943.15	22.76258	-83.81643	0.5764937
42.6743	4938.565	22.81332	-83.76604	0.6074055
42.72828	4933.979	22.82627	-83.71384	0.6323202
42.78227	4929.394	22.79875	-83.65999	0.6499478
42.83625	4924.813	22.73492	-83.60464	0.659336
42.89024	4920.242	22.64503	-83.54798	0.6598295
42.94423	4915.681	22.53919	-83.49024	0.6510357
42.99821	4911.129	22.43022	-83.43162	0.6328179
43.0522	4906.582	22.33243	-83.37234	0.6052699
43.10619	4902.036	22.25869	-83.31262	0.5686928
43.16017	4897.487	22.22091	-83.25265	0.5235782
43.21416	4892.925	22.22264	-83.19264	0.4705807
43.26815	4888.343	22.26066	-83.1328	0.4105083
43.32213	4883.74	22.33496	-83.07327	0.3443021
