T[Â°C]	350nm [counts / mm]	S.D.
20.00003	7027.917	6.680837
20.05401	7029.191	11.13357
20.108	7016.039	2.08314
20.16199	7003.159	13.22155
20.21597	7001.499	16.57421
20.26996	6999.176	12.81091
20.32394	6999.524	16.27056
20.37793	6988.917	11.54268
20.43192	6980.585	13.64758
20.4859	6969.378	17.93485
20.53989	6971.445	18.52988
20.59388	6963.344	15.72603
20.64786	6949.619	25.05468
20.70185	6957.262	18.39068
20.75584	6946.068	13.30473
20.80982	6939.748	20.34869
20.86381	6942.329	20.88765
20.9178	6937.044	17.16008
20.97178	6919.669	14.03594
21.02577	6917.251	10.95455
21.07975	6912.374	28.79479
21.13374	6905.041	29.72416
21.18773	6906.624	17.20889
21.24171	6901.916	8.916049
21.2957	6896.234	17.92502
21.34969	6887.54	10.27219
21.40367	6878.139	14.58622
21.45766	6875.752	13.49716
21.51164	6875.847	17.04505
21.56563	6873.054	12.80433
21.61962	6861.307	22.72245
21.6736	6852.631	21.12404
21.72759	6849.866	22.91986
21.78158	6843.004	24.74303
21.83556	6836.119	30.81985
21.88955	6840.088	30.47477
21.94353	6830.254	24.16471
21.99752	6823.276	20.95493
22.05151	6816.723	21.87311
22.1055	6810.338	12.6068
22.15948	6815.729	23.33388
22.21347	6805.84	19.24097
22.26745	6793.042	19.46082
22.32144	6794.615	17.31225
22.37543	6798.777	20.71469
22.42941	6785.216	21.79453
22.4834	6772.132	19.52561
22.53739	6771.767	18.73519
22.59137	6764.634	22.76404
22.64536	6762.256	16.68335
22.69934	6752.937	20.04926
22.75333	6748.826	21.46517
22.80732	6740.712	5.194371
22.8613	6739.391	19.37833
22.91529	6740.504	19.22677
22.96928	6738.212	11.91607
23.02326	6727.244	15.59396
23.07725	6720.479	10.01223
23.13124	6718.313	20.85113
23.18522	6710.423	17.53735
23.23921	6694.531	8.549127
23.29319	6695.366	5.547013
23.34718	6696.75	6.024909
23.40117	6687.884	10.92397
23.45515	6682.902	7.801215
23.50914	6677.462	14.2975
23.56313	6672.356	19.47602
23.61711	6668.187	13.58874
23.6711	6662.162	16.7902
23.72508	6656.11	19.02496
23.77907	6651.749	16.89816
23.83306	6646.583	18.73655
23.88704	6642.263	22.01701
23.94103	6641.452	11.51483
23.99502	6636.63	6.945281
24.049	6627.243	7.01016
24.10299	6623.174	9.341629
24.15698	6612.093	15.60218
24.21096	6608.626	18.18273
24.26495	6603.746	15.31948
24.31894	6606.233	16.54207
24.37292	6594.959	8.536388
24.42691	6581.037	12.29307
24.48089	6583.948	15.84239
24.53488	6580.533	18.58782
24.58887	6579.137	19.92634
24.64285	6576.172	19.7196
24.69684	6561.347	28.33605
24.75083	6564.619	22.88869
24.80481	6550.57	17.93455
24.8588	6541.873	18.09181
24.91278	6541.583	22.45129
24.96677	6539.506	23.9048
25.02076	6531.381	19.36406
25.07474	6533.103	15.85636
25.12873	6517.947	13.61009
25.18272	6514.259	16.13441
25.2367	6513.634	12.21186
25.29069	6506.516	16.6173
25.34468	6505.884	18.23423
25.39866	6496.498	14.45194
25.45265	6483.594	23.92237
25.50664	6476.426	21.54839
25.56062	6474.583	19.21625
25.61461	6477.168	18.02709
25.66859	6468.029	29.05684
25.72258	6469.399	25.3615
25.77657	6453.785	24.36176
25.83055	6456.34	19.33733
25.88454	6454.162	20.76511
25.93853	6449.092	19.15358
25.99251	6442.535	26.74939
26.0465	6435.557	23.07411
26.10048	6430.641	15.58753
26.15447	6427.409	15.62265
26.20846	6413.389	18.28113
26.26244	6414.772	19.61151
26.31643	6397.797	18.47875
26.37042	6398.967	16.34499
26.4244	6404.303	16.80262
26.47839	6392.876	15.89604
26.53238	6389.428	22.98568
26.58636	6382.677	19.43415
26.64035	6372.85	17.84636
26.69433	6370.603	21.06228
26.74832	6366.629	19.10833
26.80231	6363.324	14.86483
26.85629	6359.745	16.02521
26.91028	6352.071	12.52566
26.96427	6349.574	6.34037
27.01825	6342.546	9.952237
27.07224	6331.494	3.552164
27.12623	6327.521	10.21409
27.18021	6316.136	16.41028
27.2342	6313.468	19.1882
27.28819	6315.843	17.35685
27.34217	6310.622	18.23214
27.39616	6303.272	21.64681
27.45014	6300.044	19.55458
27.50413	6296.585	13.44122
27.55812	6291.552	14.92045
27.6121	6288.581	14.24914
27.66609	6277.692	13.2341
27.72008	6266.597	16.88016
27.77406	6272.237	14.53148
27.82805	6268.749	18.0312
27.88203	6255.138	16.54407
27.93602	6249.853	17.18179
27.99001	6242.887	20.73247
28.04399	6238.844	25.59389
28.09798	6235.167	18.02546
28.15197	6233.129	18.31585
28.20595	6220.066	21.6045
28.25994	6218.558	24.32468
28.31392	6216.309	19.70705
28.36791	6211.694	23.48353
28.4219	6215.212	19.2519
28.47589	6207.613	23.63859
28.52987	6199.641	14.99174
28.58386	6189.193	13.04919
28.63784	6182.638	15.85728
28.69183	6177.733	17.72109
28.74582	6178.09	15.17482
28.7998	6172.132	18.81662
28.85379	6166.552	19.72671
28.90778	6157.431	20.46981
28.96176	6150.371	22.30263
29.01575	6150.191	24.65627
29.06973	6140.064	19.95782
29.12372	6135.307	28.54695
29.17771	6137.739	18.03255
29.23169	6132.899	17.23431
29.28568	6124.807	18.47646
29.33967	6119.309	22.44388
29.39365	6116.08	16.19745
29.44764	6112.946	21.29159
29.50163	6111.931	20.36203
29.55561	6108.696	18.0321
29.6096	6107.074	14.06212
29.66358	6090.708	11.26515
29.71757	6080.596	22.11318
29.77156	6080.223	19.10054
29.82554	6072.489	17.5471
29.87953	6068.856	16.73937
29.93352	6069.311	18.05591
29.9875	6055.228	16.71115
30.04149	6062.542	12.78962
30.09547	6053.351	13.8646
30.14946	6045.632	19.59766
30.20345	6039.742	23.35047
30.25743	6034.113	17.84589
30.31142	6028.55	12.98494
30.36541	6025.893	8.240051
30.41939	6015.063	2.559945
30.47338	6012.396	17.97174
30.52737	6007.66	15.46201
30.58135	6005.22	13.13858
30.63534	6000.688	10.80576
30.68933	5995.182	6.26027
30.74331	5984.503	9.322289
30.7973	5979.242	16.94969
30.85128	5975.06	15.77368
30.90527	5975.977	15.01213
30.95926	5972.761	20.18196
31.01324	5964.522	14.36487
31.06723	5960.208	13.95012
31.12122	5960.743	11.66862
31.1752	5953.114	16.62858
31.22919	5950.025	22.5962
31.28317	5942.699	21.01535
31.33716	5931.342	19.83429
31.39115	5927.517	17.99705
31.44513	5920.214	21.53046
31.49912	5917.128	20.00574
31.55311	5916.191	14.81024
31.60709	5908.118	15.77696
31.66108	5904.829	15.30071
31.71507	5901.277	8.305509
31.76905	5890.526	7.591429
31.82304	5892.705	13.37866
31.87703	5882.158	12.47595
31.93101	5882.21	16.10589
31.985	5886.993	22.2043
32.03898	5874.259	18.83377
32.09297	5870.444	25.65824
32.14696	5866.755	20.40347
32.20094	5858.864	23.59098
32.25493	5859.564	14.39
32.30891	5852.011	22.56296
32.3629	5842.3	20.3063
32.41689	5832.563	15.6326
32.47087	5829.295	14.02998
32.52486	5824.522	19.50183
32.57885	5816.48	19.19839
32.63284	5807.105	20.52693
32.68682	5812.874	21.87774
32.74081	5806.667	21.85897
32.79479	5804.467	17.50431
32.84878	5796.594	16.45997
32.90277	5796.457	22.17233
32.95675	5789.305	24.82546
33.01074	5778.506	19.55095
33.06472	5779.424	24.25733
33.11871	5780.89	23.46867
33.1727	5771.124	24.01032
33.22668	5766.668	24.68633
33.28067	5758.61	15.17993
33.33466	5751.588	18.66566
33.38864	5745.684	22.11857
33.44263	5751.368	20.79471
33.49662	5745.502	15.18817
33.5506	5735.712	19.31815
33.60459	5732.554	23.05859
33.65857	5723.396	18.94814
33.71256	5717.59	19.68147
33.76655	5713.78	20.81403
33.82053	5704.837	18.7434
33.87452	5707.212	19.26064
33.9285	5697.856	21.03163
33.98249	5694.589	22.88697
34.03648	5691.04	19.81043
34.09047	5683.327	14.18063
34.14445	5688.203	17.20424
34.19844	5676.521	20.6788
34.25243	5670.794	19.26767
34.30641	5669.65	10.29191
34.3604	5658.132	14.08197
34.41438	5660.596	11.62025
34.46837	5648.177	13.99315
34.52236	5646.155	15.90318
34.57634	5638.301	18.17921
34.63033	5633.883	17.41053
34.68431	5629.042	16.93851
34.7383	5628.694	23.29394
34.79229	5620.694	23.39176
34.84628	5622.573	21.78931
34.90026	5611.366	17.82359
34.95425	5613.491	9.695061
35.00823	5600.157	17.10984
35.06222	5601.631	22.22542
35.11621	5596.444	19.64927
35.17019	5595.58	25.66248
35.22418	5589.609	23.37756
35.27816	5575.78	22.34315
35.33215	5572.04	19.97511
35.38614	5571.104	14.92422
35.44012	5564.271	16.45391
35.49411	5557.876	19.85801
35.5481	5555.062	27.32569
35.60209	5552.22	26.97582
35.65607	5545.429	18.28807
35.71006	5542.161	18.60642
35.76404	5538.792	14.69313
35.81803	5530.792	16.53108
35.87202	5526.287	19.91475
35.926	5518.902	23.57137
35.97999	5518.135	17.689
36.03397	5512.748	12.13107
36.08796	5505.797	15.82441
36.14195	5502.772	18.26135
36.19593	5493.695	17.42213
36.24992	5484.059	22.07187
36.30391	5489.211	24.19617
36.35789	5473.352	22.32414
36.41188	5476.538	30.61608
36.46587	5472.457	28.9398
36.51985	5463.657	22.52586
36.57384	5457.967	27.35054
36.62782	5462.328	28.16856
36.68181	5457.363	31.47291
36.7358	5449.715	21.01591
36.78978	5442.925	29.61036
36.84377	5439.475	23.86699
36.89775	5430.42	29.28603
36.95174	5425.127	19.75341
37.00573	5420.532	26.24551
37.05972	5410.963	26.52356
37.1137	5411.738	28.25727
37.16769	5409.369	15.03821
37.22168	5404.096	16.95549
37.27566	5397.952	25.06095
37.32965	5394.034	28.18218
37.38363	5384.712	26.14158
37.43762	5380.562	29.90012
37.49161	5378.42	26.13353
37.54559	5372.775	27.77696
37.59958	5366.382	24.88571
37.65356	5364.998	22.48253
37.70755	5359.215	25.54251
37.76154	5350.598	26.23256
37.81553	5357.186	23.111
37.86951	5344.799	24.3077
37.9235	5344.929	14.66967
37.97748	5341.224	17.66826
38.03147	5331.126	25.18459
38.08546	5326.207	24.83424
38.13944	5333.556	21.98281
38.19343	5323.164	20.34743
38.24741	5325.166	19.62795
38.3014	5314.652	16.89875
38.35539	5307.918	19.93068
38.40937	5300.729	24.64255
38.46336	5298.159	27.23446
38.51735	5290.176	30.45808
38.57133	5289.21	26.17702
38.62532	5281.288	25.93854
38.67931	5280.965	32.94396
38.73329	5274.241	29.98927
38.78728	5275.082	19.45057
38.84127	5264.322	25.34205
38.89525	5254.789	23.06221
38.94924	5247.903	23.37396
39.00322	5246.938	22.27472
39.05721	5242.734	21.39052
39.1112	5239.915	25.27536
39.16518	5234.972	28.59505
39.21917	5228.691	29.41587
39.27316	5227.536	27.90642
39.32714	5230.395	21.31775
39.38113	5219.706	23.96798
39.43512	5213.249	28.39965
39.4891	5211.381	26.8023
39.54309	5207.178	27.92923
39.59707	5204.082	29.16045
39.65106	5193.609	25.14718
39.70505	5186.71	24.53112
39.75903	5180.71	23.13833
39.81302	5181.446	26.95805
39.867	5170.301	28.19052
39.92099	5176.103	27.45252
39.97498	5159.621	30.0044
40.02896	5158.831	30.31013
40.08295	5157.851	33.50169
40.13694	5142.172	29.80801
40.19092	5141.51	28.03146
40.24491	5140.563	26.13179
40.2989	5141.027	25.76436
40.35288	5142.028	21.95692
40.40687	5133.064	19.43418
40.46085	5123.31	18.26411
40.51484	5115.943	24.6047
40.56883	5123.839	23.14065
40.62281	5118.715	36.01509
40.6768	5110.77	28.3809
40.73079	5104.338	29.85143
40.78477	5092.93	27.67652
40.83876	5089.538	26.72927
40.89275	5087.727	22.09833
40.94673	5082.407	23.1485
41.00072	5083.349	17.34836
41.05471	5072.433	25.69643
41.10869	5071.985	23.94766
41.16268	5063.806	33.92741
41.21666	5062.273	18.87222
41.27065	5055.331	19.84608
41.32464	5050.618	17.38418
41.37862	5045.497	14.53026
41.43261	5036.317	15.48092
41.4866	5035.456	16.2558
41.54058	5038.042	11.16257
41.59457	5027.768	14.99308
41.64856	5024.604	14.68501
41.70254	5017.031	24.64335
41.75653	5022.557	15.44985
41.81051	5014.075	18.25764
41.8645	5003.155	18.322
41.91849	4999.351	20.44332
41.97247	4998.58	16.95939
42.02646	4992.851	24.7445
42.08044	4990.045	19.80929
42.13443	4980.25	23.08446
42.18842	4987.55	24.23675
42.2424	4976.969	26.69413
42.29639	4968.768	25.66652
42.35038	4962.201	24.42224
42.40437	4961.693	24.26896
42.45835	4957.429	24.69294
42.51234	4948.653	20.06984
42.56632	4946.313	18.81198
42.62031	4940.602	22.31445
42.6743	4936.934	27.6753
42.72828	4943.676	22.84564
42.78227	4929.534	26.08992
42.83625	4930.879	21.85858
42.89024	4923.946	19.89039
42.94423	4911.256	18.67459
42.99821	4909.026	25.32645
43.0522	4902.951	24.66538
43.10619	4898.188	26.21753
43.16017	4899.897	23.85394
43.21416	4893.656	20.43068
43.26815	4886.395	22.86676
43.32213	4884.454	23.2847
43.37612	4878.648	21.78153
43.4301	4876.423	21.68692
43.48409	4870.396	27.1286
43.53808	4864.112	19.09568
43.59206	4856.314	16.56024
43.64605	4858.657	16.69054
43.70004	4857.194	22.67987
43.75402	4847.478	24.07092
43.80801	4838.8	22.07313
43.862	4840.712	22.30064
43.91598	4832.78	28.92857
43.96997	4829.486	25.4362
44.02396	4824.321	31.60283
44.07794	4815.842	26.24479
44.13193	4815.209	23.16906
44.18591	4805.739	33.08869
44.2399	4802.649	30.60297
44.29389	4807.38	22.32651
44.34787	4800.973	21.21215
44.40186	4801.084	22.98022
44.45584	4787.885	26.80472
44.50983	4789.678	23.49391
44.56382	4785.752	25.82143
44.61781	4775.671	24.11523
44.67179	4769.574	25.19051
44.72578	4771.179	20.52801
44.77976	4761.722	21.42357
44.83375	4761.205	21.8189
44.88774	4753.168	19.71752
44.94172	4751.819	19.19339
44.99571	4744.093	25.03975
45.04969	4742.93	24.65623
45.10368	4734.943	23.26372
45.15767	4733.956	19.98003
45.21165	4729.167	18.13059
45.26564	4724.265	12.45263
45.31963	4720.96	17.01946
45.37362	4723.834	13.98929
45.4276	4709.289	20.38972
45.48159	4719.582	10.52524
45.53557	4706.778	19.53506
45.58956	4701.132	16.72853
45.64355	4691.774	22.73256
45.69753	4687.438	10.63533
45.75152	4683.865	11.16384
45.8055	4679.616	11.17569
45.85949	4669.141	20.42194
45.91348	4672.521	22.67901
45.96746	4662.609	22.44225
46.02145	4671.871	22.50386
46.07544	4659.307	27.095
46.12942	4654.819	30.02059
46.18341	4648.696	27.4664
46.2374	4643.771	22.66755
46.29138	4641.948	26.62839
46.34537	4637.574	18.98559
46.39935	4632.129	23.17929
46.45334	4627.936	15.73007
46.50733	4621.591	21.28649
46.56131	4622.893	21.27529
46.6153	4616.254	22.46616
46.66928	4609.612	16.51361
46.72327	4607.754	18.12324
46.77726	4605.336	13.22928
46.83125	4599.237	17.65025
46.88523	4598.906	20.87598
46.93922	4594.046	22.12053
46.99321	4592.178	22.53791
47.04719	4584.684	20.31942
47.10118	4580.452	22.0616
47.15516	4575.37	20.48221
47.20915	4567.127	18.28439
47.26314	4560.737	21.58701
47.31712	4555.265	22.16368
47.37111	4552.022	20.40109
47.42509	4545.412	19.76889
47.47908	4547.908	15.57755
47.53307	4540.956	18.67373
47.58706	4540.785	26.26642
47.64104	4528.917	31.69432
47.69503	4527.158	23.94879
47.74901	4518.837	28.52533
47.803	4523.268	21.73666
47.85699	4517.205	29.30668
47.91097	4511.325	21.63373
47.96496	4504.438	25.96102
48.01894	4506.615	22.08621
48.07293	4494.913	32.22261
48.12692	4502.498	28.96036
48.1809	4493.951	28.97558
48.23489	4491.347	25.8081
48.28888	4481.17	26.02734
48.34286	4480.368	21.18875
48.39685	4474.388	33.33567
48.45084	4474.191	22.46413
48.50482	4460.061	21.96407
48.55881	4463.202	16.04177
48.6128	4454.312	16.44804
48.66678	4458.298	19.65366
48.72077	4447.53	21.13563
48.77475	4449.652	15.88673
48.82874	4442.65	18.24261
48.88273	4440.038	12.03409
48.93671	4434.864	21.8907
48.9907	4430.198	17.93065
49.04469	4422.127	21.27664
49.09867	4422.55	18.94081
49.15266	4413.738	16.68868
49.20665	4415.288	24.74248
49.26063	4410.394	25.39432
49.31462	4403.016	15.57607
49.3686	4397.371	18.84346
49.42259	4397.321	15.21405
49.47658	4389	24.14487
49.53056	4386.2	21.17702
49.58455	4381.786	24.72439
49.63853	4383.483	16.57336
49.69252	4373.494	26.20392
49.74651	4368.942	18.50746
49.8005	4365.689	18.48815
49.85448	4365.339	10.23055
49.90847	4357.985	18.13931
49.96246	4354.595	13.14545
50.01644	4349.256	21.59141
50.07043	4348.998	16.46782
50.12441	4340.867	22.26383
50.1784	4339.925	22.4279
50.23239	4331.418	22.05456
50.28637	4335.54	15.04936
50.34036	4325.217	19.00995
50.39434	4325.939	14.25289
50.44833	4313.182	19.33103
50.50232	4315.663	17.62676
50.5563	4306.112	19.96661
50.61029	4302.25	19.02943
50.66428	4302.799	17.91596
50.71826	4300.309	18.81835
50.77225	4292.074	20.87923
50.82624	4283.703	23.78951
50.88022	4285.091	26.42725
50.93421	4280.542	31.48831
50.98819	4281.043	22.41335
51.04218	4270.806	26.9499
51.09617	4275.172	21.38937
51.15015	4267.358	25.24096
51.20414	4258.032	19.37859
51.25813	4254.32	15.82555
51.31211	4251.516	17.77021
51.3661	4239.949	26.16252
51.42009	4250.642	26.77896
51.47407	4237.419	32.00691
51.52806	4237.329	21.88583
51.58205	4232.173	25.29578
51.63603	4224.114	24.70902
51.69002	4215.842	23.46457
51.744	4214.75	23.40654
51.79799	4209.948	19.99799
51.85198	4209.488	22.98484
51.90596	4203.522	28.69406
51.95995	4204.739	21.42627
52.01394	4196.301	24.11741
52.06792	4198.858	20.0201
52.12191	4193.165	27.46147
52.1759	4184.431	25.25336
52.22988	4175.282	25.86562
52.28387	4178.029	18.2797
52.33785	4168.485	26.54543
52.39184	4169.24	16.64678
52.44583	4159.476	19.56408
52.49981	4157.901	13.95131
52.5538	4147.334	20.10221
52.60778	4155.87	16.03065
52.66177	4148.642	18.97737
52.71576	4146.269	18.89139
52.76974	4139.14	16.91114
52.82373	4138.74	14.62226
52.87772	4128.807	17.66309
52.93171	4127.855	13.03259
52.98569	4120.083	25.04399
53.03968	4126.882	14.746
53.09366	4117.627	15.46754
53.14765	4115.377	15.86067
53.20163	4104.874	18.82767
53.25562	4107.75	14.27645
53.30961	4101.479	21.6163
53.36359	4095.003	15.89577
53.41758	4087.054	24.20152
53.47157	4088.18	15.26956
53.52555	4084.209	16.33999
53.57954	4084.136	18.60253
53.63353	4079.703	22.01709
53.68751	4077.269	12.49811
53.7415	4069.411	12.86031
53.79549	4066.993	14.3085
53.84947	4057.614	21.11158
53.90346	4059.583	15.55453
53.95744	4056.394	20.7747
54.01143	4051.898	19.5648
54.06542	4043.383	21.51633
54.1194	4043.798	20.67642
54.17339	4034.525	23.37636
54.22738	4037.637	19.63716
54.28136	4032.018	21.88677
54.33535	4030.758	20.43023
54.38934	4024.698	23.15893
54.44332	4021.746	23.54336
54.49731	4013.926	19.29687
54.55129	4005.941	17.13787
54.60528	4003.908	14.83807
54.65927	3999.119	16.6905
54.71325	4000.289	16.85359
54.76724	3996.419	16.93838
54.82122	3993.362	15.42332
54.87521	3989.268	24.2862
54.9292	3984.969	18.86038
54.98318	3983.397	22.61497
55.03717	3980.491	16.71258
55.09116	3969.5	17.99272
55.14515	3968.496	17.9503
55.19913	3958.123	19.60276
55.25312	3961.687	18.38507
55.3071	3955.905	18.14449
55.36109	3952.811	17.92625
55.41508	3944.558	24.6061
55.46906	3948.95	19.98159
55.52305	3940.494	22.45031
55.57703	3941.611	16.23617
55.63102	3933.011	18.83152
55.68501	3931.876	16.18785
55.73899	3925.112	19.59296
55.79298	3919.275	20.24448
55.84697	3912.323	24.72908
55.90095	3913.996	20.48083
55.95494	3907.043	23.58344
56.00893	3906.236	20.10899
56.06291	3895.946	23.72837
56.1169	3902.519	19.14632
56.17088	3894.423	25.38201
56.22487	3898.081	22.12631
56.27886	3887.895	23.45039
56.33284	3884.14	12.42812
56.38683	3877.384	14.05128
56.44081	3881.516	13.11922
56.4948	3873.709	18.51066
56.54879	3869.874	9.588941
56.60278	3865.454	17.82466
56.65676	3866.149	13.62719
56.71075	3854.922	19.56911
56.76474	3855.097	18.14985
56.81872	3847.681	20.43152
56.87271	3850.208	11.65906
56.92669	3846.231	19.2952
56.98068	3840.474	14.52628
57.03467	3835.612	15.32745
57.08865	3836.318	3.410342
57.14264	3826.594	9.183296
57.19662	3829.01	12.76386
57.25061	3817.027	12.37606
57.3046	3818.988	9.635899
57.35859	3808.962	16.93888
57.41257	3808.018	14.51248
57.46656	3803.239	19.24083
57.52054	3796.751	15.82045
57.57453	3793.607	20.29383
57.62852	3800.218	14.52919
57.6825	3791.77	17.7219
57.73649	3793.292	15.3933
57.79047	3784.21	20.28631
57.84446	3783.124	19.29429
57.89845	3776.91	18.80963
57.95243	3773.739	21.57116
58.00642	3768.042	19.88363
58.06041	3759.444	19.13282
58.1144	3760.119	21.77693
58.16838	3757.053	25.18912
58.22237	3749.982	22.34379
58.27635	3740.162	26.75124
58.33034	3747.089	15.1357
58.38433	3735.377	17.98994
58.43831	3736.427	10.90985
58.4923	3730.919	16.24682
58.54628	3731.809	11.94549
58.60027	3721.124	21.23977
58.65426	3726.057	17.16943
58.70824	3720.002	22.78373
58.76223	3720.077	15.66155
58.81622	3713.361	17.46487
58.8702	3711.179	19.35854
58.92419	3703.286	24.4604
58.97818	3704.595	14.01597
59.03216	3695.664	22.0957
59.08615	3699.278	15.77069
59.14013	3686.503	17.33548
59.19412	3687.837	9.8136
59.24811	3679.161	15.68797
59.30209	3680.886	11.39394
59.35608	3674.265	19.22749
59.41006	3676.005	12.69287
59.46405	3666.965	16.35104
59.51804	3670.122	13.43643
59.57203	3659.983	20.60465
59.62601	3667.288	10.4323
59.68	3654.472	18.15962
59.73399	3659.686	15.95286
59.78797	3651.272	21.07682
59.84196	3646.03	19.40874
59.89594	3641.797	22.22018
59.94993	3641.849	18.63513
60.00392	3636.537	21.73854
60.0579	3632.349	20.8925
60.11189	3626.237	16.0893
60.16587	3620.688	17.74105
60.21986	3622.394	16.22478
60.27385	3615.035	19.48645
60.32784	3612.778	18.57184
