T[Â°C]	330nm [counts / mm]	S.D.	First derivative	S.D. of first derivative
20.00094	3596.743		-53.23367	
20.05489	3593.714		-53.14726	
20.10884	3590.685		-53.06193	
20.16279	3587.659		-52.9777	
20.21674	3584.635		-52.89459	
20.27069	3581.614		-52.81263	
20.32464	3578.596		-52.73182	
20.37859	3575.582		-52.65219	
20.43254	3572.572		-52.57375	
20.48649	3569.565		-52.4965	
20.54045	3566.562		-52.42043	
20.59439	3563.56		-52.34556	
20.64835	3560.56		-52.27185	
20.7023	3557.558		-52.1993	
20.75625	3554.551		-52.12789	
20.8102	3551.537		-52.05758	
20.86415	3548.51		-51.98833	
20.9181	3545.466		-51.9201	
20.97205	3542.405		-51.85284	
21.026	3539.459		-51.78649	
21.07995	3536.548		-51.72096	
21.1339	3533.675		-51.65618	
21.18785	3530.851		-51.59206	
21.2418	3528.082		-51.5285	
21.29575	3525.366		-51.46538	
21.3497	3522.698		-51.4026	
21.40365	3520.079		-51.34003	
21.4576	3517.506		-51.27756	
21.51155	3514.977		-51.21503	
21.5655	3512.491		-51.15234	
21.61945	3510.045		-51.08933	
21.6734	3507.636		-51.02589	
21.72735	3505.257		-50.96188	
21.7813	3502.898		-50.89718	
21.83525	3500.549		-50.83166	
21.8892	3498.205		-50.7652	
21.94315	3495.864		-50.69767	
21.9971	3493.516		-50.62897	
22.05105	3491.151		-50.559	
22.105	3488.753		-50.48768	
22.15895	3486.311		-50.41497	
22.2129	3483.813		-50.34091	
22.26686	3481.251		-50.26562	
22.3208	3478.63		-50.18939	
22.37476	3475.956		-50.11279	
22.42871	3473.235		-50.03678	
22.48266	3470.467		-49.96285	
22.53661	3467.655		-49.89309	
22.59056	3464.798		-49.83	
22.64451	3461.894		-49.77792	
22.69846	3458.948		-49.72815	
22.75241	3455.97		-49.6809	
22.80636	3452.976		-49.63634	
22.86031	3449.985		-49.59462	
22.91426	3447.015		-49.55579	
22.96821	3444.075		-49.51992	
23.02216	3441.161		-49.48694	
23.07611	3438.266		-49.4568	
23.13006	3435.389		-49.42933	
23.18401	3432.531		-49.40434	
23.23796	3429.696		-49.3815	
23.29191	3426.885		-49.36047	
23.34586	3424.1		-49.34081	
23.39981	3421.342		-49.32201	
23.45376	3418.605		-49.30352	
23.50771	3415.891		-49.28474	
23.56166	3413.201		-49.26505	
23.61561	3410.538		-49.24385	
23.66956	3407.896		-49.22054	
23.72351	3405.273		-49.19464	
23.77746	3402.672		-49.16574	
23.83141	3400.09		-49.13351	
23.88536	3397.515		-49.0977	
23.93931	3394.938		-49.05817	
23.99327	3392.348		-49.01489	
24.04721	3389.744		-48.96788	
24.10117	3387.129		-48.91726	
24.15512	3384.508		-48.86324	
24.20907	3381.887		-48.8061	
24.26302	3379.267		-48.7462	
24.31697	3376.648		-48.68394	
24.37092	3374.037		-48.61985	
24.42487	3371.437		-48.55447	
24.47882	3368.858		-48.4884	
24.53277	3366.303		-48.42228	
24.58672	3363.776		-48.35673	
24.64067	3361.282		-48.29235	
24.69462	3358.82		-48.22976	
24.74857	3356.379		-48.16949	
24.80252	3353.945		-48.11207	
24.85647	3351.509		-48.05797	
24.91042	3349.063		-48.00763	
24.96437	3346.604		-47.96138	
25.01832	3344.123		-47.91951	
25.07227	3341.619		-47.88224	
25.12622	3339.093		-47.84976	
25.18017	3336.544		-47.8222	
25.23412	3333.975		-47.79964	
25.28807	3331.391		-47.7821	
25.34202	3328.804		-47.76951	
25.39597	3326.22		-47.7617	
25.44992	3323.649		-47.75838	
25.50387	3321.098		-47.75917	
25.55782	3318.573		-47.76358	
25.61177	3316.062		-47.77107	
25.66572	3313.55		-47.78109	
25.71968	3311.026		-47.79306	
25.77362	3308.477		-47.80641	
25.82758	3305.895		-47.82059	
25.88153	3303.275		-47.83505	
25.93548	3300.617		-47.84926	
25.98943	3297.932		-47.86271	
26.04338	3295.234		-47.87493	
26.09733	3292.54		-47.88551	
26.15128	3289.871		-47.89409	
26.20523	3287.243		-47.90041	
26.25918	3284.661		-47.90424	
26.31313	3282.121		-47.90548	
26.36708	3279.613		-47.90405	
26.42103	3277.129		-47.90001	
26.47498	3274.657		-47.89344	
26.52893	3272.181		-47.88451	
26.58288	3269.69		-47.87336	
26.63683	3267.178		-47.86014	
26.69078	3264.639		-47.84497	
26.74473	3262.07		-47.82795	
26.79868	3259.468		-47.80912	
26.85263	3256.83		-47.78857	
26.90658	3254.156		-47.76639	
26.96053	3251.445		-47.74269	
27.01448	3248.703		-47.71761	
27.06843	3245.942		-47.69125	
27.12238	3243.178		-47.66377	
27.17633	3240.427		-47.63531	
27.23028	3237.7		-47.60597	
27.28423	3235.003		-47.57583	
27.33818	3232.331		-47.54492	
27.39213	3229.669		-47.51323	
27.44608	3227.001		-47.4807	
27.50003	3224.316		-47.44727	
27.55399	3221.611		-47.41289	
27.60793	3218.892		-47.37752	
27.66189	3216.17		-47.34118	
27.71584	3213.456		-47.30394	
27.76979	3210.762		-47.26586	
27.82374	3208.105		-47.22704	
27.87769	3205.501		-47.18754	
27.93164	3202.967		-47.14744	
27.98559	3200.51		-47.10679	
28.03954	3198.13		-47.06562	
28.09349	3195.813		-47.02397	
28.14744	3193.543		-46.98189	
28.20139	3191.301		-46.9394	
28.25534	3189.063		-46.89655	
28.30929	3186.804		-46.85334	
28.36324	3184.51		-46.80984	
28.41719	3182.169		-46.76611	
28.47114	3179.78		-46.72225	
28.52509	3177.344		-46.67843	
28.57904	3174.87		-46.63485	
28.63299	3172.37		-46.59171	
28.68694	3169.849		-46.54922	
28.74089	3167.315		-46.50756	
28.79484	3164.784		-46.4669	
28.84879	3162.274		-46.42738	
28.90274	3159.787		-46.38919	
28.95669	3157.314		-46.35251	
29.01064	3154.836		-46.3175	
29.06459	3152.333		-46.28433	
29.11854	3149.791		-46.2531	
29.17249	3147.213		-46.22389	
29.22644	3144.609		-46.1967	
29.2804	3141.996		-46.17149	
29.33434	3139.392		-46.14816	
29.3883	3136.805		-46.12659	
29.44225	3134.238		-46.10669	
29.4962	3131.698		-46.08836	
29.55015	3129.191		-46.07156	
29.6041	3126.728		-46.05629	
29.65805	3124.308		-46.04261	
29.712	3121.924		-46.03058	
29.76595	3119.566		-46.02026	
29.8199	3117.223		-46.01168	
29.87385	3114.882		-46.00483	
29.9278	3112.531		-45.99966	
29.98175	3110.163		-45.9961	
30.0357	3107.771		-45.99407	
30.08965	3105.352		-45.99348	
30.1436	3102.901		-45.99419	
30.19755	3100.41		-45.99606	
30.2515	3097.875		-45.99889	
30.30545	3095.296		-46.00249	
30.3594	3092.687		-46.00665	
30.41335	3090.063		-46.0112	
30.4673	3087.439		-46.016	
30.52125	3084.83		-46.02094	
30.5752	3082.246		-46.02597	
30.62915	3079.686		-46.03104	
30.6831	3077.142		-46.03611	
30.73705	3074.604		-46.04111	
30.791	3072.074		-46.04601	
30.84495	3069.55		-46.05075	
30.8989	3067.032		-46.05532	
30.95285	3064.517		-46.05975	
31.00681	3062.001		-46.06407	
31.06075	3059.479		-46.06831	
31.11471	3056.946		-46.07246	
31.16866	3054.41		-46.07643	
31.22261	3051.886		-46.08011	
31.27656	3049.398		-46.08334	
31.33051	3046.966		-46.08598	
31.38446	3044.596		-46.0879	
31.43841	3042.283		-46.089	
31.49236	3040.013		-46.08918	
31.54631	3037.771		-46.08837	
31.60026	3035.539		-46.08655	
31.65421	3033.296		-46.0837	
31.70816	3031.027		-46.07984	
31.76211	3028.718		-46.07499	
31.81606	3026.363		-46.06915	
31.87001	3023.95		-46.06231	
31.92396	3021.476		-46.05444	
31.97791	3018.938		-46.04549	
32.03186	3016.347		-46.03542	
32.08581	3013.717		-46.02424	
32.13976	3011.069		-46.01193	
32.19371	3008.414		-45.99851	
32.24766	3005.76		-45.98401	
32.30161	3003.114		-45.96847	
32.35556	3000.487		-45.95195	
32.40951	2997.884		-45.93449	
32.46346	2995.302		-45.91615	
32.51741	2992.74		-45.89697	
32.57136	2990.191		-45.87697	
32.62531	2987.653		-45.85614	
32.67926	2985.121		-45.83438	
32.73322	2982.589		-45.8116	
32.78716	2980.061		-45.78768	
32.84111	2977.541		-45.76249	
32.89507	2975.037		-45.73597	
32.94902	2972.562		-45.70808	
33.00296	2970.123		-45.67884	
33.05692	2967.712		-45.64826	
33.11087	2965.318		-45.61638	
33.16482	2962.929		-45.58321	
33.21877	2960.539		-45.54876	
33.27272	2958.147		-45.51303	
33.32667	2955.753		-45.47607	
33.38062	2953.354		-45.43793	
33.43457	2950.945		-45.39863	
33.48852	2948.518		-45.35818	
33.54247	2946.067		-45.31659	
33.59642	2943.582		-45.2738	
33.65037	2941.06		-45.22979	
33.70432	2938.512		-45.18459	
33.75827	2935.956		-45.13825	
33.81222	2933.402		-45.09085	
33.86617	2930.861		-45.04253	
33.92012	2928.333		-44.99337	
33.97407	2925.822		-44.94353	
34.02802	2923.323		-44.89318	
34.08197	2920.836		-44.84253	
34.13592	2918.362		-44.79181	
34.18987	2915.9		-44.74128	
34.24382	2913.452		-44.69124	
34.29777	2911.029		-44.64198	
34.35172	2908.638		-44.59377	
34.40567	2906.283		-44.54687	
34.45963	2903.965		-44.50148	
34.51357	2901.683		-44.45776	
34.56752	2899.431		-44.41581	
34.62148	2897.2		-44.37572	
34.67543	2894.978		-44.33748	
34.72937	2892.751		-44.30108	
34.78333	2890.507		-44.26646	
34.83728	2888.235		-44.23351	
34.89123	2885.937		-44.20213	
34.94518	2883.618		-44.17218	
34.99913	2881.28		-44.14353	
35.05308	2878.924		-44.11605	
35.10703	2876.545		-44.08965	
35.16098	2874.144		-44.06424	
35.21493	2871.733		-44.03975	
35.26888	2869.327		-44.0161	
35.32283	2866.938		-43.99322	
35.37678	2864.573		-43.97103	
35.43073	2862.236		-43.94946	
35.48468	2859.922		-43.92842	
35.53863	2857.61		-43.90777	
35.59258	2855.277		-43.88733	
35.64653	2852.913		-43.86687	
35.70048	2850.515		-43.84619	
35.75443	2848.09		-43.82508	
35.80838	2845.646		-43.80336	
35.86233	2843.195		-43.78085	
35.91628	2840.745		-43.75739	
35.97023	2838.308		-43.73282	
36.02418	2835.894		-43.70706	
36.07813	2833.51		-43.68001	
36.13208	2831.166		-43.65163	
36.18604	2828.862		-43.62194	
36.23998	2826.59		-43.59097	
36.29393	2824.336		-43.55879	
36.34789	2822.083		-43.52547	
36.40184	2819.82		-43.49106	
36.45578	2817.538		-43.45566	
36.50974	2815.232		-43.41935	
36.56369	2812.892		-43.38223	
36.61764	2810.515		-43.34441	
36.67159	2808.107		-43.30604	
36.72554	2805.672		-43.26728	
36.77949	2803.216		-43.2283	
36.83344	2800.751		-43.18929	
36.88739	2798.288		-43.15045	
36.94134	2795.837		-43.11191	
36.99529	2793.403		-43.07385	
37.04924	2790.986		-43.0364	
37.10319	2788.586		-42.99973	
37.15714	2786.194		-42.96395	
37.21109	2783.802		-42.92918	
37.26504	2781.405		-42.89551	
37.31899	2778.997		-42.86304	
37.37294	2776.583		-42.83182	
37.42689	2774.176		-42.80194	
37.48084	2771.788		-42.77349	
37.53479	2769.427		-42.74656	
37.58874	2767.095		-42.72118	
37.64269	2764.785		-42.69737	
37.69664	2762.496		-42.67514	
37.75059	2760.234		-42.65445	
37.80454	2758.005		-42.63524	
37.85849	2755.816		-42.61742	
37.91245	2753.663		-42.60083	
37.96639	2751.531		-42.5853	
38.02034	2749.409		-42.57056	
38.0743	2747.284		-42.55631	
38.12825	2745.158		-42.54222	
38.18219	2743.034		-42.52797	
38.23615	2740.912		-42.51322	
38.2901	2738.786		-42.49767	
38.34405	2736.654		-42.48102	
38.39799	2734.515		-42.46299	
38.45195	2732.366		-42.44332	
38.5059	2730.196		-42.4218	
38.55985	2727.996		-42.39828	
38.6138	2725.765		-42.37265	
38.66775	2723.507		-42.34488	
38.7217	2721.226		-42.31496	
38.77565	2718.929		-42.28293	
38.8296	2716.624		-42.24888	
38.88355	2714.313		-42.21292	
38.9375	2711.997		-42.17522	
38.99145	2709.675		-42.13593	
39.0454	2707.349		-42.09522	
39.09935	2705.021		-42.05324	
39.1533	2702.696		-42.01016	
39.20725	2700.372		-41.96614	
39.2612	2698.05		-41.92135	
39.31515	2695.726		-41.87597	
39.3691	2693.394		-41.83018	
39.42305	2691.052		-41.78415	
39.477	2688.706		-41.73805	
39.53095	2686.358		-41.69204	
39.5849	2684.008		-41.64632	
39.63885	2681.653		-41.6011	
39.6928	2679.29		-41.55661	
39.74675	2676.917		-41.51307	
39.8007	2674.537		-41.4707	
39.85466	2672.159		-41.42972	
39.9086	2669.792		-41.39034	
39.96255	2667.437		-41.35275	
40.01651	2665.092		-41.31707	
40.07046	2662.747		-41.28333	
40.1244	2660.399		-41.2515	
40.17836	2658.049		-41.22149	
40.23231	2655.7		-41.19318	
40.28626	2653.355		-41.16645	
40.34021	2651.024		-41.14115	
40.39416	2648.719		-41.11711	
40.44811	2646.445		-41.09412	
40.50206	2644.204		-41.07198	
40.55601	2641.995		-41.05051	
40.60996	2639.817		-41.02957	
40.66391	2637.669		-41.00911	
40.71786	2635.547		-40.98912	
40.77181	2633.453		-40.96965	
40.82576	2631.381		-40.95076	
40.87971	2629.329		-40.93256	
40.93366	2627.298		-40.91517	
40.98761	2625.292		-40.8987	
41.04156	2623.312		-40.88325	
41.09551	2621.352		-40.86893	
41.14946	2619.403		-40.85588	
41.20341	2617.455		-40.84425	
41.25736	2615.505		-40.83419	
41.31131	2613.551		-40.82587	
41.36526	2611.589		-40.81948	
41.41921	2609.615		-40.81515	
41.47316	2607.628		-40.81297	
41.52711	2605.622		-40.81301	
41.58107	2603.594		-40.81533	
41.63501	2601.538		-40.81996	
41.68896	2599.45		-40.82691	
41.74292	2597.323		-40.83613	
41.79687	2595.152		-40.84755	
41.85081	2592.936		-40.86106	
41.90477	2590.676		-40.87653	
41.95872	2588.381		-40.89381	
42.01267	2586.059		-40.91275	
42.06662	2583.723		-40.93314	
42.12057	2581.376		-40.95472	
42.17452	2579.021		-40.97721	
42.22847	2576.655		-41.00028	
42.28242	2574.284		-41.02359	
42.33637	2571.919		-41.04678	
42.39032	2569.567		-41.06946	
42.44427	2567.222		-41.0912	
42.49822	2564.88		-41.11158	
42.55217	2562.542		-41.13017	
42.60612	2560.214		-41.14658	
42.66007	2557.904		-41.16046	
42.71402	2555.611		-41.1715	
42.76797	2553.336		-41.17944	
42.82192	2551.077		-41.18409	
42.87587	2548.824		-41.18528	
42.92982	2546.577		-41.1829	
42.98377	2544.34		-41.17685	
43.03772	2542.113		-41.16708	
43.09167	2539.891		-41.15357	
43.14562	2537.667		-41.13634	
43.19957	2535.433		-41.11547	
43.25352	2533.184		-41.09106	
43.30748	2530.912		-41.06328	
43.36142	2528.61		-41.03232	
43.41537	2526.275		-40.99839	
43.46933	2523.914		-40.96172	
43.52328	2521.541		-40.92259	
43.57722	2519.168		-40.88124	
43.63118	2516.803		-40.83795	
43.68513	2514.455		-40.79294	
43.73908	2512.128		-40.74645	
43.79303	2509.822		-40.69868	
43.84698	2507.532		-40.64984	
43.90093	2505.252		-40.60012	
43.95488	2502.981		-40.54972	
44.00883	2500.726		-40.49887	
44.06278	2498.496		-40.44775	
44.11673	2496.292		-40.39654	
44.17068	2494.11		-40.34538	
44.22463	2491.952		-40.29434	
44.27858	2489.831		-40.24348	
44.33253	2487.76		-40.19282	
44.38648	2485.741		-40.14237	
44.44043	2483.767		-40.09214	
44.49438	2481.826		-40.04215	
44.54833	2479.907		-39.99239	
44.60228	2478.004		-39.94289	
44.65623	2476.106		-39.89363	
44.71018	2474.208		-39.84463	
44.76413	2472.307		-39.79589	
44.81808	2470.392		-39.74747	
44.87203	2468.452		-39.69941	
44.92598	2466.483		-39.65175	
44.97993	2464.48		-39.60458	
45.03388	2462.445		-39.55796	
45.08783	2460.375		-39.51199	
45.14178	2458.275		-39.46674	
45.19574	2456.149		-39.42229	
45.24968	2454.004		-39.37873	
45.30363	2451.842		-39.33617	
45.35759	2449.662		-39.29473	
45.41154	2447.461		-39.25455	
45.46548	2445.237		-39.21576	
45.51944	2442.996		-39.17849	
45.57339	2440.74		-39.14289	
45.62734	2438.48		-39.10901	
45.68129	2436.228		-39.07688	
45.73524	2433.994		-39.04648	
45.78919	2431.781		-39.0178	
45.84314	2429.584		-38.99078	
45.89709	2427.399		-38.96542	
45.95104	2425.226		-38.9417	
46.00499	2423.067		-38.9196	
46.05894	2420.926		-38.89914	
46.11289	2418.798		-38.88027	
46.16684	2416.68		-38.86293	
46.22079	2414.569		-38.84702	
46.27474	2412.469		-38.83238	
46.32869	2410.379		-38.81885	
46.38264	2408.301		-38.80623	
46.43659	2406.232		-38.79435	
46.49054	2404.164		-38.78302	
46.54449	2402.085		-38.77211	
46.59844	2399.988		-38.76148	
46.65239	2397.869		-38.75101	
46.70634	2395.734		-38.7406	
46.76029	2393.588		-38.73016	
46.81424	2391.443		-38.71965	
46.86819	2389.304		-38.70902	
46.92215	2387.176		-38.69822	
46.97609	2385.06		-38.68723	
47.03004	2382.957		-38.67601	
47.084	2380.865		-38.66456	
47.13795	2378.784		-38.65289	
47.19189	2376.711		-38.64106	
47.24585	2374.646		-38.62913	
47.2998	2372.587		-38.61724	
47.35375	2370.537		-38.60552	
47.4077	2368.499		-38.59413	
47.46165	2366.476		-38.58323	
47.5156	2364.467		-38.573	
47.56955	2362.47		-38.56364	
47.6235	2360.485		-38.55531	
47.67745	2358.518		-38.54817	
47.7314	2356.576		-38.54235	
47.78535	2354.656		-38.53799	
47.8393	2352.748		-38.53518	
47.89325	2350.839		-38.534	
47.9472	2348.92		-38.53453	
48.00115	2346.984		-38.53683	
48.0551	2345.022		-38.54093	
48.10905	2343.024		-38.54683	
48.163	2340.992		-38.5545	
48.21695	2338.931		-38.56386	
48.2709	2336.848		-38.57479	
48.32485	2334.753		-38.58708	
48.3788	2332.654		-38.60049	
48.43275	2330.551		-38.6147	
48.4867	2328.44		-38.6294	
48.54065	2326.318		-38.64422	
48.5946	2324.183		-38.65879	
48.64856	2322.038		-38.67275	
48.7025	2319.879		-38.68571	
48.75645	2317.705		-38.69729	
48.81041	2315.519		-38.70709	
48.86436	2313.33		-38.71472	
48.9183	2311.141		-38.71978	
48.97226	2308.956		-38.72188	
49.02621	2306.777		-38.72065	
49.08016	2304.605		-38.71573	
49.13411	2302.442		-38.70685	
49.18806	2300.286		-38.69381	
49.24201	2298.136		-38.67646	
49.29596	2295.994		-38.65476	
49.34991	2293.869		-38.62871	
49.40386	2291.766		-38.59834	
49.45781	2289.684		-38.56372	
49.51176	2287.619		-38.52498	
49.56571	2285.56		-38.4823	
49.61966	2283.499		-38.43592	
49.67361	2281.438		-38.38613	
49.72756	2279.378		-38.33329	
49.78151	2277.315		-38.2778	
49.83546	2275.242		-38.22011	
49.88941	2273.156		-38.16068	
49.94336	2271.057		-38.1	
49.99731	2268.946		-38.03857	
50.05126	2266.82		-37.97692	
50.10521	2264.666		-37.91556	
50.15916	2262.481		-37.855	
50.21311	2260.269		-37.79573	
50.26706	2258.042		-37.73819	
50.32101	2255.815		-37.68276	
50.37497	2253.6		-37.6297	
50.42891	2251.403		-37.57924	
50.48286	2249.226		-37.53151	
50.53682	2247.07		-37.48659	
50.59077	2244.936		-37.44452	
50.64471	2242.825		-37.4053	
50.69867	2240.735		-37.36885	
50.75262	2238.668		-37.33506	
50.80657	2236.628		-37.30379	
50.86052	2234.623		-37.27485	
50.91447	2232.655		-37.24798	
50.96842	2230.731		-37.22295	
51.02237	2228.859		-37.19947	
51.07632	2227.048		-37.17732	
51.13027	2225.29		-37.1563	
51.18422	2223.575		-37.13626	
51.23817	2221.889		-37.11709	
51.29212	2220.227		-37.09872	
51.34607	2218.578		-37.08113	
51.40002	2216.934		-37.06432	
51.45397	2215.281		-37.04831	
51.50792	2213.608		-37.03317	
51.56187	2211.908		-37.01897	
51.61582	2210.178		-37.00577	
51.66977	2208.413		-36.99365	
51.72372	2206.608		-36.98268	
51.77767	2204.756		-36.97292	
51.83162	2202.851		-36.96442	
51.88557	2200.89		-36.95728	
51.93952	2198.881		-36.95153	
51.99347	2196.84		-36.94722	
52.04742	2194.774		-36.94435	
52.10138	2192.686		-36.94292	
52.15532	2190.578		-36.9429	
52.20927	2188.449		-36.94422	
52.26323	2186.297		-36.94679	
52.31718	2184.119		-36.95045	
52.37112	2181.916		-36.955	
52.42508	2179.698		-36.96019	
52.47903	2177.477		-36.96574	
52.53298	2175.263		-36.97134	
52.58693	2173.065		-36.9766	
52.64088	2170.882		-36.98114	
52.69483	2168.718		-36.98452	
52.74878	2166.576		-36.98632	
52.80273	2164.458		-36.98615	
52.85668	2162.37		-36.98361	
52.91063	2160.309		-36.97836	
52.96458	2158.278		-36.97007	
53.01853	2156.278		-36.95844	
53.07248	2154.304		-36.94326	
53.12643	2152.344		-36.92435	
53.18038	2150.385		-36.90163	
53.23433	2148.422		-36.8751	
53.28828	2146.456		-36.84481	
53.34223	2144.48		-36.81094	
53.39618	2142.494		-36.77371	
53.45013	2140.495		-36.73347	
53.50408	2138.482		-36.69064	
53.55803	2136.457		-36.64568	
53.61198	2134.42		-36.59912	
53.66593	2132.371		-36.55151	
53.71988	2130.313		-36.50335	
53.77383	2128.251		-36.45519	
53.82779	2126.185		-36.40759	
53.88173	2124.115		-36.36107	
53.93568	2122.042		-36.31616	
53.98964	2119.967		-36.27332	
54.04359	2117.886		-36.23299	
54.09753	2115.802		-36.19552	
54.15149	2113.72		-36.1612	
54.20544	2111.655		-36.13026	
54.25939	2109.621		-36.1029	
54.31334	2107.631		-36.07924	
54.36729	2105.691		-36.05937	
54.42124	2103.802		-36.04336	
54.47519	2101.963		-36.0312	
54.52914	2100.171		-36.02286	
54.58309	2098.424		-36.01822	
54.63704	2096.719		-36.01708	
54.69099	2095.05		-36.01918	
54.74494	2093.408		-36.02419	
54.79889	2091.781		-36.03179	
54.85284	2090.155		-36.04163	
54.90679	2088.521		-36.05338	
54.96074	2086.873		-36.0667	
55.01469	2085.209		-36.08131	
55.06864	2083.53		-36.0969	
55.12259	2081.836		-36.11317	
55.17654	2080.128		-36.12983	
55.23049	2078.406		-36.14663	
55.28444	2076.665		-36.16336	
55.33839	2074.892		-36.17989	
55.39234	2073.075		-36.19612	
55.44629	2071.205		-36.21202	
55.50024	2069.279		-36.2276	
55.5542	2067.301		-36.24294	
55.60814	2065.276		-36.25809	
55.66209	2063.205		-36.27313	
55.71605	2061.094		-36.28811	
55.77	2058.95		-36.30311	
55.82394	2056.78		-36.31819	
55.8779	2054.596		-36.33342	
55.93185	2052.414		-36.34882	
55.9858	2050.246		-36.36436	
56.03975	2048.093		-36.37999	
56.0937	2045.953		-36.39556	
56.14765	2043.824		-36.41086	
56.2016	2041.704		-36.42561	
