T[Â°C]	330nm [counts / mm]	S.D.
20.00115	3425.556	27.66672
20.0551	3422.316	20.9343
20.10905	3427.81	23.71906
20.16299	3423.506	26.54306
20.21694	3415.602	25.64245
20.27089	3408.164	25.39474
20.32484	3409.522	25.62483
20.37879	3409.303	25.52492
20.43274	3404.791	24.17609
20.48668	3401.047	28.40112
20.54063	3400.906	27.91564
20.59458	3398.614	25.56149
20.64853	3395.133	21.50126
20.70248	3395.128	22.3288
20.75643	3387.919	17.55404
20.81037	3387.122	21.1563
20.86432	3382.783	23.05352
20.91827	3380.737	23.95236
20.97222	3372.744	16.73882
21.02617	3374.464	23.20662
21.08011	3366.764	24.296
21.13406	3374.227	22.62365
21.18801	3367.267	18.88124
21.24196	3366.764	26.19646
21.29591	3363.871	24.94016
21.34986	3358.611	21.24582
21.4038	3357.85	19.58373
21.45775	3353.39	26.86067
21.5117	3348.794	27.8333
21.56565	3351.9	23.70593
21.6196	3343.113	20.92266
21.67354	3345.561	19.86509
21.72749	3341.894	24.3273
21.78144	3339.109	26.64855
21.83539	3337.469	22.20787
21.88934	3328.556	20.03622
21.94328	3330.227	23.16957
21.99723	3331.499	26.67332
22.05118	3329.075	25.09447
22.10513	3323.971	22.72032
22.15908	3320.732	20.64606
22.21303	3317.005	22.04172
22.26698	3315.637	22.14232
22.32092	3316.588	20.2172
22.37487	3312.223	20.11405
22.42882	3309.744	14.62148
22.48277	3306.906	19.91946
22.53672	3306.625	32.34028
22.59066	3302.431	26.52967
22.64461	3297.426	21.49639
22.69856	3292.556	19.17719
22.75251	3291.855	23.12506
22.80646	3288.554	20.68532
22.8604	3286.089	20.96959
22.91435	3282.708	20.30717
22.9683	3282.966	17.81097
23.02225	3282.387	19.49524
23.0762	3280.404	19.6801
23.13015	3274.098	21.59517
23.18409	3270.755	20.49425
23.23804	3269.418	21.42831
23.29199	3266.936	24.13758
23.34594	3262.025	21.58075
23.39989	3260.294	18.66771
23.45383	3260.981	17.65506
23.50778	3259.689	19.17252
23.56173	3257.655	21.2185
23.61568	3251.799	19.37374
23.66963	3248.64	20.01936
23.72358	3250.311	22.57773
23.77752	3244.592	23.7534
23.83147	3238.83	24.63163
23.88542	3238.893	22.24557
23.93937	3233.614	22.95539
23.99332	3232.449	20.84115
24.04727	3228.493	16.3725
24.10121	3226.615	18.32114
24.15516	3220.283	17.41461
24.20911	3223.804	18.98695
24.26306	3223.11	16.52415
24.31701	3216.12	23.81901
24.37095	3216.134	23.01319
24.4249	3214.437	22.66046
24.47885	3213.094	22.49414
24.5328	3207.662	19.55031
24.58675	3206.355	19.99247
24.6407	3204.043	18.68758
24.69464	3200.394	17.75834
24.74859	3199.85	19.75001
24.80254	3196.564	17.90316
24.85649	3192.062	21.04446
24.91044	3189.219	23.18736
24.96439	3185.694	26.1759
25.01833	3188.722	30.63821
25.07228	3179.478	25.48082
25.12623	3178.955	22.00043
25.18018	3176.664	26.55116
25.23413	3173.001	22.31287
25.28807	3174.993	25.47458
25.34202	3172.1	21.97402
25.39597	3167.259	22.62344
25.44992	3167.155	21.61815
25.50387	3164.345	22.15202
25.55782	3159.548	23.94939
25.61176	3158.757	19.13178
25.66571	3156.914	18.69903
25.71966	3153.833	25.1147
25.77361	3151.698	23.6955
25.82756	3144.38	21.43387
25.8815	3145.168	22.97473
25.93545	3142.883	19.54204
25.9894	3141.458	20.984
26.04335	3140.242	23.38025
26.0973	3133.507	19.60982
26.15125	3136.369	24.69405
26.20519	3130.792	22.5699
26.25914	3127.052	20.66471
26.31309	3122.707	20.44112
26.36704	3123.324	14.94138
26.42099	3120.842	18.09483
26.47494	3114.439	27.97405
26.52888	3112.475	23.82146
26.58283	3114.604	19.04546
26.63678	3113.435	21.06526
26.69073	3109.899	22.37105
26.74468	3107.509	23.7633
26.79862	3107.543	21.67325
26.85257	3104.464	23.46038
26.90652	3107.048	20.70962
26.96047	3103.342	20.63888
27.01442	3097.203	22.66902
27.06837	3093.732	21.44109
27.12231	3091.26	20.22217
27.17626	3086.97	19.17227
27.23021	3081.246	17.8639
27.28416	3079.269	20.60682
27.33811	3077.782	23.11935
27.39205	3076.878	19.71018
27.446	3073.735	20.07588
27.49995	3069.396	24.87623
27.5539	3065.903	22.42787
27.60785	3064.605	15.52887
27.66179	3065.503	14.14751
27.71574	3064.317	20.06522
27.76969	3061.585	19.81517
27.82364	3055.505	18.17066
27.87759	3051.663	22.07143
27.93154	3049.468	20.65694
27.98549	3047.11	23.47469
28.03943	3051.992	21.50196
28.09338	3048.453	20.42474
28.14733	3043.936	21.86881
28.20128	3042.627	21.2795
28.25523	3037.276	19.27973
28.30917	3035.248	25.34919
28.36312	3035.4	21.64611
28.41707	3031.609	24.24788
28.47102	3032.116	24.42869
28.52497	3030.043	19.43023
28.57891	3021.613	24.12367
28.63286	3019.479	21.6073
28.68681	3017.792	22.91642
28.74076	3014.712	19.30214
28.79471	3018.098	20.74438
28.84866	3009.524	17.55932
28.90261	3008.106	16.21742
28.95655	3008.933	18.03665
29.0105	3004.478	20.39083
29.06445	3004.232	18.26919
29.1184	3001.921	16.40051
29.17235	2998.592	19.65136
29.22629	2997.078	17.07563
29.28024	2990.866	22.68622
29.33419	2987.266	24.38723
29.38814	2990.576	20.34822
29.44209	2986.137	21.91695
29.49603	2982.103	19.17453
29.54998	2978.097	19.69453
29.60393	2978.346	22.22108
29.65788	2972.485	20.36251
29.71183	2975.628	18.80588
29.76578	2972.431	18.94126
29.81972	2967.567	18.43042
29.87367	2964.437	23.45032
29.92762	2966.597	14.97547
29.98157	2959.131	19.76859
30.03552	2962.62	14.93888
30.08946	2952.81	24.60031
30.14341	2953.362	24.22245
30.19736	2951.348	19.10043
30.25131	2948.711	17.68836
30.30526	2951.087	19.60559
30.35921	2946.004	16.36909
30.41315	2942.449	14.94378
30.4671	2942.206	14.53545
30.52105	2940.628	16.94847
30.575	2936.864	18.56967
30.62895	2935.722	18.8889
30.6829	2930.635	16.9027
30.73684	2928.847	19.47663
30.79079	2929.412	20.56282
30.84474	2926.308	20.54292
30.89869	2924.215	18.58957
30.95264	2919.795	15.15359
31.00658	2915.177	15.24936
31.06053	2913.024	14.92055
31.11448	2913.949	17.16031
31.16843	2913.207	21.07408
31.22238	2907.088	22.84412
31.27633	2908.178	21.92373
31.33027	2904.567	17.96101
31.38422	2901.085	16.85473
31.43817	2896.259	17.67254
31.49212	2895.935	18.55195
31.54607	2892.942	19.63052
31.60001	2892.265	21.55913
31.65396	2893.025	18.7972
31.70791	2890.96	19.73512
31.76186	2890.488	22.6965
31.81581	2885.348	20.0387
31.86975	2876.278	18.84623
31.9237	2874.454	16.81695
31.97765	2872.508	18.42101
32.0316	2874.003	18.07651
32.08555	2871.006	11.13472
32.1395	2863.873	12.02029
32.19344	2868.96	14.66909
32.24739	2868.615	16.64537
32.30134	2861.483	24.04943
32.35529	2857.475	19.33158
32.40924	2854.013	22.9996
32.46318	2859.96	20.27663
32.51714	2849.883	25.65436
32.57108	2847.767	23.96294
32.62503	2847.332	22.30925
32.67898	2843.786	24.4616
32.73293	2844.988	20.10115
32.78688	2845.712	21.397
32.84082	2838.789	22.42111
32.89477	2834.374	22.34787
32.94872	2833.927	21.00777
33.00267	2833.708	18.715
33.05662	2831.247	21.12918
33.11057	2830.055	21.00744
33.16451	2826.337	16.95917
33.21846	2824.817	19.45312
33.27241	2821.951	19.37302
33.32636	2823.654	20.17589
33.38031	2817.426	15.94876
33.43425	2813.493	17.35434
33.4882	2813.088	14.4426
33.54215	2813.236	19.6335
33.5961	2806.718	21.34303
33.65005	2808.198	18.6426
33.70399	2797.828	22.25148
33.75794	2795.94	15.19875
33.81189	2792.468	16.70756
33.86584	2795.786	22.98881
33.91979	2795.461	20.18481
33.97374	2793.469	18.73219
34.02768	2787.115	19.59705
34.08163	2788.204	18.78427
34.13558	2782.928	22.6801
34.18953	2781.385	20.37411
34.24348	2779.692	21.57816
34.29742	2777.373	18.89112
34.35137	2773.393	17.97705
34.40532	2774.42	17.85677
34.45927	2773.918	18.40025
34.51322	2770.565	20.7314
34.56717	2767.117	20.40529
34.62111	2765.529	16.81029
34.67506	2763.047	16.31489
34.72901	2758.052	19.36863
34.78296	2756.332	23.56671
34.83691	2756.327	24.32265
34.89085	2755.588	22.0172
34.94481	2755.131	20.52483
34.99875	2751.36	17.56918
35.0527	2746.872	18.79798
35.10665	2748.414	17.79368
35.16059	2741.225	18.76701
35.21455	2741.78	20.01098
35.26849	2734.11	20.44722
35.32244	2730.801	16.37166
35.37639	2729.456	12.35293
35.43034	2733.533	12.74142
35.48429	2727.098	17.81387
35.53823	2732.191	19.56201
35.59218	2724.989	20.37804
35.64613	2723.036	22.78172
35.70008	2718.014	18.01447
35.75403	2718.268	13.05109
35.80798	2714.027	13.68336
35.86192	2715.496	15.49922
35.91587	2710.088	17.07679
35.96982	2709.398	15.30551
36.02377	2705.985	15.7502
36.07772	2706.101	17.82541
36.13166	2702.317	21.50018
36.18561	2700.296	25.54727
36.23956	2694.402	18.17633
36.29351	2693.095	18.47831
36.34746	2692.354	21.7276
36.40141	2694.364	21.36739
36.45535	2687.605	18.98224
36.5093	2687.607	15.11652
36.56325	2684.289	11.97425
36.6172	2683.45	15.28225
36.67115	2679.181	19.37431
36.72509	2680.31	19.53316
36.77904	2672.295	16.42321
36.83299	2671.968	22.23294
36.88694	2670.747	16.36503
36.94089	2667.624	17.40399
36.99483	2666.833	16.84157
37.04878	2667.388	12.3336
37.10273	2662.129	17.17496
37.15668	2662.168	16.12409
37.21063	2653.84	16.07232
37.26458	2653.521	16.18528
37.31852	2653.99	17.35084
37.37247	2652.482	17.7361
37.42642	2651.659	21.64207
37.48037	2648.71	21.57575
37.53432	2643.647	21.6724
37.58826	2642.942	16.10215
37.64222	2640.345	15.16577
37.69616	2642.852	16.6855
37.75011	2636.766	20.61712
37.80406	2637.503	21.835
37.85801	2629.741	17.14913
37.91196	2629.56	17.65148
37.9659	2627.013	18.15596
38.01985	2625.12	21.26765
38.0738	2623.747	24.18519
38.12775	2623.281	19.79242
38.18169	2621.252	21.92387
38.23565	2617.708	20.12196
38.28959	2614.53	16.28057
38.34354	2614.19	20.0172
38.39749	2613.417	22.27641
38.45144	2612.585	17.55739
38.50539	2609.145	16.75621
38.55933	2606.339	19.68244
38.61328	2606.009	18.49619
38.66723	2599.29	15.32901
38.72118	2594.752	15.03336
38.77513	2592.702	17.01262
38.82907	2593.563	14.45109
38.88302	2591.525	17.00779
38.93697	2594.144	18.79163
38.99092	2583.589	16.39365
39.04487	2582.491	16.64496
39.09882	2582.148	17.17039
39.15276	2580.744	18.02734
39.20671	2577.261	12.51975
39.26066	2578.212	17.80833
39.31461	2576.391	19.85118
39.36856	2577.406	16.333
39.4225	2567.976	17.93458
39.47645	2565.375	19.979
39.5304	2571.741	20.34834
39.58435	2568.501	17.03193
39.6383	2558.548	18.24016
39.69225	2561.236	14.82716
39.74619	2553.925	17.30679
39.80014	2558.196	15.26181
39.85409	2554.209	19.57147
39.90804	2551.652	18.32842
39.96199	2549.952	17.89762
40.01593	2549.172	17.29984
40.06988	2540.519	16.8661
40.12383	2540.23	15.4034
40.17778	2539.249	13.81917
40.23173	2541.596	18.1074
40.28568	2530.708	15.67437
40.33962	2530.858	18.47274
40.39357	2529.313	16.69667
40.44752	2531.389	17.12724
40.50147	2525.734	15.74357
40.55542	2527.967	17.49183
40.60936	2520.226	16.26499
40.66331	2519.276	17.69303
40.71726	2516.381	20.18059
40.77121	2516.072	17.36255
40.82516	2511.904	17.33928
40.8791	2512.228	19.0661
40.93306	2503.924	16.34831
40.987	2509.841	12.07672
41.04095	2505.251	16.00668
41.0949	2510.637	22.05587
41.14885	2499.241	18.73764
41.2028	2498.811	18.44633
41.25674	2497.125	20.22889
41.31069	2498.776	18.66339
41.36464	2491.992	14.32454
41.41859	2489.144	14.38124
41.47254	2489.944	19.44469
41.52649	2487.32	18.32932
41.58043	2489.267	17.37237
41.63438	2486.83	17.80591
41.68833	2479.049	16.67013
41.74228	2481.173	19.69507
41.79623	2476.9	23.15604
41.85017	2475.883	20.34122
41.90412	2472.128	14.60903
41.95807	2468.533	9.729793
42.01202	2467.555	11.84501
42.06597	2467.804	17.93018
42.11992	2466.981	17.37239
42.17386	2464.304	15.69678
42.22781	2460.61	17.7203
42.28176	2456.523	17.55594
42.33571	2456.438	14.4397
42.38966	2455.207	15.50307
42.4436	2454.988	14.54605
42.49755	2450.364	14.42417
42.5515	2450.12	15.66033
42.60545	2447.619	17.86383
42.6594	2445.328	18.17629
42.71334	2443.684	17.86902
42.76729	2445.394	19.74993
42.82124	2436.978	17.58772
42.87519	2438.2	21.20727
42.92914	2434.022	15.82861
42.98309	2432.079	15.87768
43.03703	2429.497	15.95321
43.09098	2430.942	19.70914
43.14493	2429.469	15.52714
43.19888	2430.862	14.08264
43.25283	2419.865	14.59233
43.30677	2420.915	16.93037
43.36073	2419.223	16.83909
43.41467	2419.217	20.50307
43.46862	2409.286	16.47044
43.52257	2413.475	22.31428
43.57652	2409.102	12.98235
43.63047	2415.871	14.26481
43.68441	2405.548	17.5011
43.73836	2404.362	14.96378
43.79231	2403.083	15.56506
43.84626	2401.314	15.60262
43.90021	2393.886	17.89435
43.95415	2396.417	16.12456
44.0081	2393.41	14.14867
44.06205	2392.896	15.29079
44.116	2388.959	16.09437
44.16995	2386.899	12.94105
44.2239	2379.951	10.06121
44.27784	2385.679	9.448009
44.33179	2376.334	18.67698
44.38574	2380.779	19.22021
44.43969	2377.237	16.8708
44.49364	2376.435	18.44426
44.54758	2374.294	15.02553
44.60153	2371.885	14.88268
44.65548	2365.272	21.57967
44.70943	2366.331	18.56322
44.76338	2365.121	15.53159
44.81733	2365.223	17.62691
44.87127	2359.402	20.11514
44.92522	2360.761	17.02365
44.97917	2359.089	16.73014
45.03312	2357.709	18.8227
45.08707	2351.183	18.18848
45.14101	2350.901	15.69683
45.19496	2349.305	12.62607
45.24891	2348.213	13.86029
45.30286	2343.357	15.31473
45.35681	2343.563	14.61447
45.41076	2339.281	13.52713
45.4647	2338.243	14.59726
45.51865	2336.047	12.21329
45.5726	2334.031	12.57585
45.62655	2335.889	13.35082
45.6805	2334.701	12.61486
45.73444	2331.308	13.46591
45.78839	2329.736	12.58131
45.84234	2326.712	15.78607
45.89629	2322.374	14.56501
45.95024	2323.066	13.90426
46.00418	2321.079	16.14734
46.05814	2317.492	11.38714
46.11208	2314.064	16.18069
46.16603	2312.641	21.73429
46.21998	2310.956	17.92589
46.27393	2309.445	20.24891
46.32788	2306.737	15.53553
46.38182	2310.665	15.72314
46.43577	2303.556	16.50734
46.48972	2306.136	15.23681
46.54367	2299.814	18.13401
46.59762	2300.725	15.80916
46.65157	2299.401	14.27561
46.70551	2296.119	13.78545
46.75946	2294.406	13.45902
46.81341	2293.569	14.60224
46.86736	2287.703	14.31721
46.92131	2286.417	9.504722
46.97525	2281.094	11.34287
47.0292	2284.548	14.46041
47.08315	2277.599	15.69268
47.1371	2278.046	14.85659
47.19105	2272.342	16.08867
47.245	2276.397	19.64985
47.29894	2270.141	16.43245
47.35289	2274.264	19.40398
47.40684	2267.629	15.36135
47.46079	2270.384	17.93557
47.51474	2260.588	12.10508
47.56868	2259.909	10.47661
47.62263	2258.016	13.93245
47.67658	2258.679	14.28363
47.73053	2253.413	12.97969
47.78448	2257.767	17.89565
47.83842	2251.31	18.51023
47.89237	2249.956	18.57901
47.94632	2246.038	16.08545
48.00027	2249.898	18.29851
48.05422	2241.163	16.39584
48.10817	2244.508	14.01834
48.16211	2240.613	22.13336
48.21606	2240.259	15.47495
48.27001	2232.1	13.18093
48.32396	2233.893	15.0734
48.37791	2232.125	13.51716
48.43185	2230.81	12.90642
48.4858	2230.207	7.27031
48.53975	2228.609	10.81988
48.5937	2222.257	16.28809
48.64765	2223.306	14.62447
48.7016	2221.921	11.02483
48.75554	2222.567	12.67074
48.80949	2213.328	14.56176
48.86344	2213.179	15.7812
48.91739	2211.638	16.70139
48.97134	2210.844	16.22493
49.02528	2208.136	12.99038
49.07924	2210.433	13.55484
49.13318	2209	15.73347
49.18713	2206.177	14.9692
49.24108	2202.713	17.2141
49.29502	2200.233	14.01431
49.34898	2198.297	10.57129
49.40292	2194.589	15.78453
49.45687	2193.413	17.56526
49.51082	2194.604	14.45262
49.56477	2195.21	14.37643
49.61872	2192.664	17.61713
49.67266	2193.188	19.92455
49.72661	2190.506	14.80017
49.78056	2189.493	12.46116
49.83451	2182.008	12.1196
49.88846	2184.254	11.62866
49.94241	2176.722	14.83227
49.99635	2178.423	15.29717
50.0503	2174.493	15.21809
50.10425	2174.81	19.49296
50.1582	2171.279	13.09785
50.21215	2171.912	13.21111
50.26609	2165.107	13.17233
50.32004	2166.018	13.50909
50.37399	2161.173	16.11404
50.42794	2160.141	17.15517
50.48189	2155.426	16.92283
50.53584	2155.538	19.47671
50.58978	2155.114	15.59985
50.64373	2154.553	17.57808
50.69768	2149.354	17.61447
50.75163	2148.759	14.12404
50.80558	2142.679	13.31212
50.85952	2149.132	14.18047
50.91347	2142.509	13.83973
50.96742	2142.884	16.79433
51.02137	2136.177	13.72836
51.07532	2138.778	17.36274
51.12926	2135.079	16.88541
51.18321	2137.128	15.21058
51.23716	2133.777	18.8631
51.29111	2137.385	19.81367
51.34506	2123.761	16.93287
51.39901	2128.337	15.57729
51.45295	2122.334	15.47766
51.5069	2124.247	17.16859
51.56085	2120.543	15.07522
51.6148	2118.435	15.03076
51.66875	2118.503	16.17545
51.72269	2118.583	16.45942
51.77665	2111.998	13.97358
51.83059	2115.146	16.91674
51.88454	2110.43	14.13738
51.93849	2110.239	12.30656
51.99244	2104.191	18.008
52.04639	2106.394	14.69004
52.10033	2099.169	10.17659
52.15428	2103.552	11.77442
52.20823	2097.425	16.18451
52.26218	2096.67	15.88832
52.31613	2094.307	12.12656
52.37008	2094.097	10.1497
52.42402	2089.226	10.08678
52.47797	2087.74	15.31552
52.53192	2089.001	10.56429
52.58587	2088.559	13.42095
52.63982	2083.828	16.06485
52.69376	2084.861	15.48765
52.74771	2080.719	12.50655
52.80166	2078.458	10.40077
52.85561	2078.264	11.50283
52.90956	2075.578	13.40392
52.9635	2072.813	15.0508
53.01745	2070.966	15.22543
53.0714	2069.671	12.7083
53.12535	2068.891	10.52826
53.1793	2067.082	9.900271
53.23325	2063.572	11.6295
53.28719	2064.802	15.04559
53.34114	2062.199	13.45055
53.39509	2062.284	11.78566
53.44904	2057.725	13.32224
53.50299	2061.964	18.29223
53.55693	2055.625	16.20394
53.61088	2054.912	14.00762
53.66483	2048.58	15.12513
53.71878	2048.409	9.962985
53.77273	2043.313	10.96704
53.82668	2043.362	13.76823
53.88062	2043.646	11.13292
53.93457	2045.936	13.59528
53.98852	2036.728	13.57907
54.04247	2037.339	16.83209
54.09642	2035.803	15.39454
54.15036	2038.09	18.37616
54.20432	2030.318	13.54005
54.25826	2032.305	13.85903
54.31221	2027.268	12.79196
54.36616	2031.31	13.52936
54.4201	2023.646	15.00456
54.47406	2027.586	17.93196
54.528	2020.598	11.63969
54.58195	2023.865	15.46685
54.6359	2014.104	13.26162
54.68985	2019.099	14.50749
54.7438	2011.216	17.07584
54.79774	2014.69	17.82877
54.85169	2007.374	12.64805
54.90564	2013.911	17.34562
54.95959	2003.712	18.4139
55.01354	2005.578	16.67865
55.06749	1999.364	14.04418
55.12143	2001.663	13.76599
55.17538	2000.068	14.16445
55.22933	1999.493	13.07916
55.28328	1995.866	14.48897
55.33723	1996.399	15.61886
55.39117	1991.258	13.71262
55.44512	1992.082	13.98878
55.49907	1982.504	8.159357
55.55302	1986.335	14.90561
55.60697	1978.448	19.50866
55.66092	1984.459	13.46787
55.71486	1975.107	12.24158
55.76881	1979.656	10.35112
55.82276	1977.22	12.32215
55.87671	1976.046	12.49898
55.93066	1968.859	9.599278
55.9846	1971.198	10.80806
56.03855	1967.419	12.32094
56.0925	1967.62	13.8496
56.14645	1962.588	14.85068
56.2004	1966.138	14.40143
56.25434	1966.718	13.02771
56.30829	1963.292	13.02766
56.36224	1961.149	11.7527
56.41619	1960.803	11.37804
56.47014	1958.487	13.42168
56.52409	1955.682	13.95464
56.57803	1954.641	11.69056
56.63198	1951.476	10.43395
56.68593	1950.728	13.6871
56.73988	1946.378	14.21785
56.79383	1946.288	15.05669
56.84777	1943.972	13.69239
56.90172	1945.738	12.51219
56.95567	1940.31	10.5157
57.00962	1941.981	13.2219
57.06357	1936.387	10.72134
57.11752	1937.725	8.782744
57.17146	1934.956	10.9774
57.22541	1936.279	10.50705
57.27936	1930.635	10.29593
57.33331	1929.112	8.652867
57.38726	1921.072	10.39944
57.4412	1923.22	11.89713
57.49516	1920.533	9.34178
57.5491	1923.193	11.51962
57.60305	1917.832	14.98464
57.657	1921.038	13.73096
57.71095	1915.406	10.88725
57.7649	1920.955	10.34158
57.81884	1910.928	13.59464
57.87279	1911.925	15.66339
57.92674	1909.779	11.39302
57.98069	1911.541	8.832185
58.03464	1905.223	9.642792
58.08858	1905.485	15.13747
58.14253	1902.612	14.69715
58.19648	1905.049	13.34714
58.25043	1898.063	13.79638
58.30438	1900.174	14.56403
58.35833	1891.844	13.0692
58.41227	1896.759	13.00265
58.46622	1890.597	13.13038
58.52017	1891.072	12.58369
58.57412	1887.632	15.17867
58.62807	1885.248	15.37959
58.68201	1881.05	16.16829
58.73596	1884.783	14.76628
58.78991	1878.882	14.20986
58.84386	1881.768	13.40783
58.89781	1878.046	10.60647
58.95176	1877.423	9.542376
59.0057	1875.755	9.920489
59.05965	1878.482	10.78137
59.1136	1871.794	13.04268
59.16755	1870.574	11.63352
59.2215	1867.618	8.781811
59.27544	1867.781	9.563774
59.32939	1862.304	11.58701
59.38334	1861.669	12.48499
59.43729	1863.415	11.09973
59.49124	1861.829	12.86665
59.54519	1859.755	13.39076
59.59913	1856.03	11.42339
59.65308	1855.038	12.43585
59.70703	1854.555	11.72744
59.76098	1854.232	12.64518
59.81493	1848.519	13.71325
59.86887	1849.568	12.95982
59.92282	1845.201	11.01168
59.97677	1848.899	12.05627
60.03072	1839.608	12.24956
60.08467	1843.195	10.82245
60.13861	1840.437	10.55833
60.19257	1840.565	12.98196
60.24651	1836.703	13.09448
60.30046	1837.243	9.515665
