T[Â°C]	330nm [counts / mm]	S.D.	First derivative	S.D. of first derivative
20.00043	3270.925	86.6444	-46.47218	2.360771
20.05438	3268.397	86.55705	-46.42292	2.302799
20.10833	3265.871	86.47092	-46.37375	2.245606
20.16228	3263.347	86.38602	-46.32465	2.189247
20.21623	3260.823	86.30242	-46.27564	2.133777
20.27018	3258.301	86.21998	-46.22672	2.079257
20.32413	3255.78	86.1389	-46.17789	2.02575
20.37808	3253.26	86.05903	-46.12915	1.973322
20.43203	3250.742	85.98022	-46.08051	1.922043
20.48598	3248.225	85.90239	-46.03196	1.871987
20.53993	3245.708	85.82422	-45.9835	1.823226
20.59388	3243.194	85.74544	-45.93513	1.775838
20.64783	3240.68	85.66478	-45.88686	1.729904
20.70178	3238.167	85.58183	-45.83868	1.685505
20.75573	3235.655	85.49598	-45.79059	1.642722
20.80968	3233.143	85.40775	-45.74257	1.601639
20.86363	3230.632	85.31793	-45.69463	1.562339
20.91758	3228.123	85.22839	-45.64675	1.524902
20.97153	3225.62	85.14223	-45.59893	1.489408
21.02548	3223.118	85.0773	-45.55115	1.455934
21.07943	3220.615	85.025	-45.5034	1.424548
21.13338	3218.118	84.98746	-45.45566	1.395316
21.18733	3215.635	84.96667	-45.40791	1.368294
21.24128	3213.172	84.96393	-45.36015	1.343535
21.29523	3210.734	84.97715	-45.31234	1.321076
21.34918	3208.321	84.99896	-45.26447	1.300948
21.40313	3205.933	85.01756	-45.21652	1.283168
21.45708	3203.567	85.02273	-45.16848	1.267733
21.51103	3201.218	85.01084	-45.12032	1.254632
21.56498	3198.878	84.98462	-45.07203	1.243829
21.61893	3196.535	84.94978	-45.02358	1.235286
21.67288	3194.176	84.913	-44.97497	1.228947
21.72683	3191.795	84.88216	-44.92616	1.224741
21.78078	3189.396	84.86159	-44.87716	1.222594
21.83473	3186.985	84.85162	-44.82792	1.222418
21.88868	3184.571	84.84808	-44.77843	1.224124
21.94263	3182.162	84.84702	-44.72868	1.22762
21.99658	3179.765	84.84892	-44.67863	1.232817
22.05053	3177.385	84.85365	-44.6283	1.239629
22.10448	3175.026	84.85635	-44.57766	1.247983
22.15843	3172.684	84.85368	-44.52671	1.257835
22.21238	3170.351	84.84394	-44.47545	1.269166
22.26632	3168.023	84.82475	-44.4239	1.282004
22.32027	3165.692	84.79375	-44.37209	1.296449
22.37423	3163.348	84.74941	-44.32006	1.312706
22.42817	3160.981	84.69738	-44.26793	1.331093
22.48212	3158.585	84.64392	-44.21583	1.352071
22.53607	3156.157	84.59368	-44.16399	1.376198
22.59002	3153.697	84.54733	-44.11274	1.403984
22.64397	3151.213	84.49987	-44.06175	1.430913
22.69792	3148.714	84.4418	-44.01176	1.45694
22.75187	3146.214	84.36513	-43.96289	1.481862
22.80582	3143.723	84.27061	-43.91528	1.505507
22.85977	3141.251	84.16537	-43.86901	1.527736
22.91372	3138.807	84.05513	-43.82415	1.548439
22.96767	3136.39	83.94384	-43.78077	1.567546
23.02162	3133.997	83.83362	-43.73888	1.585025
23.07557	3131.623	83.72604	-43.69849	1.600869
23.12952	3129.265	83.62162	-43.65955	1.615101
23.18347	3126.914	83.51804	-43.62201	1.62776
23.23742	3124.563	83.41212	-43.58577	1.638904
23.29137	3122.205	83.30443	-43.55074	1.648595
23.34532	3119.836	83.19231	-43.5168	1.656885
23.39927	3117.461	83.07104	-43.48382	1.663837
23.45322	3115.088	82.9353	-43.45168	1.66953
23.50717	3112.726	82.78198	-43.42026	1.674024
23.56112	3110.378	82.60825	-43.38941	1.677382
23.61507	3108.047	82.41121	-43.35904	1.679628
23.66902	3105.737	82.19333	-43.32907	1.680781
23.72297	3103.448	81.9612	-43.29943	1.680849
23.77692	3101.177	81.72447	-43.2701	1.67984
23.83087	3098.918	81.4921	-43.24104	1.677748
23.88482	3096.665	81.27325	-43.21222	1.674564
23.93877	3094.412	81.07482	-43.18364	1.67028
23.99272	3092.16	80.89978	-43.1553	1.664885
24.04667	3089.909	80.74718	-43.12723	1.658378
24.10062	3087.657	80.61471	-43.09947	1.650757
24.15457	3085.404	80.49979	-43.07206	1.642036
24.20852	3083.145	80.40095	-43.04507	1.632216
24.26247	3080.878	80.31289	-43.01855	1.621301
24.31642	3078.599	80.22708	-42.99261	1.609278
24.37037	3076.309	80.13894	-42.96733	1.596126
24.42432	3074.01	80.04893	-42.94281	1.581828
24.47827	3071.707	79.9589	-42.91914	1.56636
24.53222	3069.404	79.8733	-42.89644	1.549728
24.58617	3067.102	79.80034	-42.87482	1.531969
24.64012	3064.802	79.74467	-42.8544	1.513135
24.69407	3062.503	79.70407	-42.8353	1.493304
24.74802	3060.205	79.67593	-42.81762	1.47261
24.80197	3057.907	79.66014	-42.80145	1.451212
24.85592	3055.611	79.65868	-42.78686	1.429314
24.90987	3053.315	79.67343	-42.77389	1.407135
24.96382	3051.018	79.70508	-42.76255	1.38492
25.01777	3048.72	79.7513	-42.75287	1.362922
25.07172	3046.425	79.81011	-42.74482	1.341389
25.12567	3044.133	79.8725	-42.73836	1.320567
25.17962	3041.839	79.92548	-42.7334	1.300689
25.23357	3039.535	79.96097	-42.72987	1.281979
25.28752	3037.214	79.97234	-42.72761	1.26466
25.34146	3034.878	79.95388	-42.7265	1.24894
25.39541	3032.537	79.90238	-42.72638	1.235003
25.44937	3030.196	79.82117	-42.72709	1.223
25.50331	3027.857	79.71577	-42.72846	1.213039
25.55726	3025.52	79.58997	-42.73033	1.205186
25.61121	3023.187	79.44973	-42.73256	1.199468
25.66516	3020.864	79.30333	-42.73499	1.195856
25.71911	3018.556	79.15963	-42.73749	1.194279
25.77306	3016.262	79.0256	-42.73991	1.19462
25.82701	3013.977	78.91073	-42.7421	1.196728
25.88096	3011.693	78.82619	-42.74392	1.200407
25.93491	3009.406	78.77498	-42.74524	1.205437
25.98886	3007.113	78.74912	-42.74591	1.211563
26.04281	3004.812	78.73727	-42.74579	1.218538
26.09676	3002.505	78.72973	-42.74475	1.226113
26.15071	3000.194	78.72347	-42.74266	1.234068
26.20466	2997.879	78.71484	-42.73939	1.242203
26.25861	2995.557	78.69825	-42.73483	1.25034
26.31256	2993.232	78.66986	-42.72889	1.258331
26.36651	2990.905	78.6307	-42.7215	1.26604
26.42046	2988.578	78.5841	-42.7126	1.273337
26.47441	2986.254	78.53255	-42.70216	1.280106
26.52836	2983.934	78.48104	-42.69016	1.286225
26.58231	2981.619	78.43544	-42.67662	1.29161
26.63626	2979.305	78.39807	-42.66154	1.29619
26.69021	2976.99	78.36736	-42.64492	1.299918
26.74416	2974.676	78.33946	-42.62673	1.302752
26.79811	2972.361	78.31037	-42.60696	1.304658
26.85206	2970.045	78.27573	-42.5856	1.305593
26.90601	2967.726	78.23133	-42.56262	1.305496
26.95996	2965.405	78.17232	-42.53801	1.304315
27.01391	2963.083	78.0968	-42.51176	1.301989
27.06786	2960.767	78.00162	-42.48385	1.298452
27.12181	2958.457	77.87972	-42.4543	1.293665
27.17576	2956.149	77.72617	-42.42316	1.287593
27.22971	2953.84	77.5459	-42.3905	1.280229
27.28366	2951.53	77.34514	-42.35646	1.271616
27.33761	2949.222	77.12901	-42.32121	1.261826
27.39156	2946.918	76.90582	-42.28495	1.250985
27.44551	2944.622	76.68416	-42.24791	1.239222
27.49946	2942.332	76.4745	-42.21032	1.226696
27.55341	2940.046	76.28482	-42.17241	1.213564
27.60736	2937.766	76.11988	-42.13441	1.199973
27.66131	2935.489	75.98083	-42.09653	1.18604
27.71526	2933.217	75.86481	-42.05896	1.171849
27.76921	2930.951	75.76547	-42.02184	1.157444
27.82316	2928.688	75.67817	-41.98528	1.142841
27.87711	2926.425	75.60163	-41.94941	1.128033
27.93106	2924.159	75.53587	-41.9143	1.11299
27.98501	2921.886	75.48164	-41.87999	1.097689
28.03896	2919.607	75.43801	-41.84649	1.082101
28.09291	2917.321	75.40172	-41.8138	1.066218
28.14686	2915.032	75.3727	-41.78193	1.050052
28.20081	2912.74	75.35331	-41.75085	1.033654
28.25476	2910.446	75.34518	-41.72056	1.017119
28.3087	2908.158	75.34796	-41.69102	1.000576
28.36266	2905.881	75.3604	-41.66219	0.9841772
28.4166	2903.62	75.38199	-41.63398	0.968101
28.47055	2901.378	75.4119	-41.60631	0.9525325
28.5245	2899.157	75.44988	-41.57907	0.937649
28.57845	2896.953	75.4939	-41.55215	0.9236373
28.6324	2894.759	75.53893	-41.52539	0.9106792
28.68635	2892.569	75.5752	-41.49862	0.8989587
28.7403	2890.376	75.59457	-41.47167	0.8886417
28.79425	2888.175	75.59336	-41.44433	0.8798587
28.8482	2885.966	75.57007	-41.41642	0.8727065
28.90215	2883.75	75.52583	-41.38774	0.8672615
28.9561	2881.531	75.46602	-41.35811	0.8635845
29.01005	2879.317	75.40017	-41.32738	0.8617186
29.064	2877.113	75.33875	-41.29539	0.8616728
29.11795	2874.921	75.28787	-41.26205	0.8634591
29.1719	2872.743	75.24967	-41.22726	0.8670654
29.22585	2870.584	75.22352	-41.19104	0.8724903
29.2798	2868.442	75.20432	-41.15346	0.8797215
29.33375	2866.311	75.18585	-41.11463	0.8887755
29.3877	2864.188	75.16511	-41.07474	0.8996621
29.44165	2862.07	75.14366	-41.03401	0.9124004
29.4956	2859.952	75.12262	-40.99267	0.9269863
29.54955	2857.83	75.10134	-40.951	0.9433876
29.6035	2855.7	75.07964	-40.90928	0.9615248
29.65745	2853.557	75.05949	-40.86779	0.9812747
29.7114	2851.395	75.04167	-40.82681	1.002479
29.76535	2849.205	75.02441	-40.78664	1.024958
29.8193	2846.978	75.00504	-40.74754	1.048502
29.87325	2844.713	74.98358	-40.70977	1.072878
29.9272	2842.415	74.96162	-40.67358	1.097831
29.98115	2840.094	74.94507	-40.63918	1.123108
30.0351	2837.764	74.93748	-40.60674	1.148461
30.08905	2835.433	74.93587	-40.57641	1.173632
30.143	2833.11	74.93528	-40.54831	1.198377
30.19695	2830.796	74.93235	-40.52253	1.222474
30.2509	2828.492	74.92496	-40.49911	1.245743
30.30485	2826.199	74.9101	-40.47804	1.268046
30.3588	2823.916	74.88357	-40.45926	1.289289
30.41275	2821.644	74.84026	-40.44268	1.309397
30.4667	2819.384	74.77474	-40.42813	1.32832
30.52065	2817.137	74.68329	-40.41547	1.346015
30.5746	2814.903	74.56595	-40.4045	1.362442
30.62855	2812.679	74.42221	-40.39502	1.377549
30.6825	2810.463	74.25388	-40.38683	1.391277
30.73645	2808.254	74.06651	-40.37968	1.403565
30.7904	2806.051	73.86252	-40.37337	1.414331
30.84435	2803.858	73.64701	-40.36766	1.423492
30.8983	2801.682	73.42784	-40.36234	1.430974
30.95225	2799.534	73.21323	-40.35719	1.436704
31.0062	2797.42	73.0108	-40.35197	1.440634
31.06015	2795.344	72.82552	-40.34651	1.442723
31.1141	2793.304	72.65918	-40.34061	1.442944
31.16805	2791.298	72.51192	-40.33409	1.441274
31.222	2789.319	72.38339	-40.32683	1.437712
31.27595	2787.356	72.26817	-40.31871	1.432293
31.3299	2785.396	72.16358	-40.30967	1.425072
31.38384	2783.426	72.06947	-40.2997	1.416142
31.4378	2781.432	71.9831	-40.2888	1.405604
31.49174	2779.402	71.89642	-40.277	1.393581
31.54569	2777.329	71.80325	-40.26439	1.380189
31.59964	2775.216	71.70444	-40.25107	1.365552
31.65359	2773.069	71.60378	-40.23717	1.349788
31.70754	2770.9	71.50249	-40.2229	1.333025
31.76149	2768.717	71.40215	-40.20844	1.315396
31.81544	2766.525	71.30708	-40.19401	1.297039
31.86939	2764.329	71.21873	-40.17984	1.278099
31.92334	2762.127	71.13714	-40.16614	1.25872
31.97729	2759.924	71.06406	-40.15312	1.239058
32.03124	2757.72	71.00246	-40.14094	1.219252
32.08519	2755.522	70.95333	-40.12974	1.199441
32.13914	2753.327	70.92147	-40.11962	1.179739
32.19309	2751.132	70.90672	-40.11058	1.160273
32.24704	2748.93	70.90292	-40.10258	1.141182
32.30099	2746.716	70.9	-40.0955	1.122627
32.35494	2744.486	70.89006	-40.08917	1.1048
32.40889	2742.24	70.86771	-40.08338	1.087895
32.46284	2739.979	70.83182	-40.07795	1.072123
32.51679	2737.712	70.78523	-40.07267	1.057662
32.57074	2735.443	70.73062	-40.06733	1.044658
32.62469	2733.182	70.67381	-40.06174	1.033181
32.67864	2730.937	70.62208	-40.05569	1.023242
32.73259	2728.713	70.57699	-40.04904	1.014792
32.78654	2726.514	70.53373	-40.04158	1.007741
32.84049	2724.341	70.48752	-40.03318	1.001961
32.89444	2722.19	70.43459	-40.02368	0.9972939
32.94839	2720.059	70.38102	-40.01295	0.9935597
33.00234	2717.941	70.33874	-40.00088	0.9905486
33.05629	2715.826	70.31744	-39.98734	0.9880367
33.11024	2713.705	70.32113	-39.97224	0.9857764
33.16419	2711.574	70.35086	-39.95547	0.983523
33.21814	2709.43	70.40288	-39.93694	0.9810301
33.27209	2707.268	70.47451	-39.91658	0.9780824
33.32604	2705.091	70.56092	-39.89436	0.9744868
33.37999	2702.904	70.65482	-39.87026	0.9700988
33.43394	2700.713	70.74548	-39.84431	0.9648156
33.48789	2698.526	70.82126	-39.81659	0.9585786
33.54184	2696.344	70.87551	-39.78716	0.9513804
33.59579	2694.17	70.90497	-39.75616	0.943258
33.64974	2692.004	70.90923	-39.72373	0.9342958
33.70369	2689.845	70.89016	-39.69005	0.9246181
33.75764	2687.691	70.85337	-39.65533	0.9143948
33.81159	2685.537	70.80399	-39.61976	0.9038252
33.86554	2683.378	70.74551	-39.58359	0.8931417
33.91949	2681.209	70.68087	-39.54704	0.882604
33.97343	2679.028	70.61152	-39.51031	0.8724849
34.02739	2676.84	70.53629	-39.47363	0.863032
34.08134	2674.651	70.45545	-39.43716	0.8544691
34.13528	2672.464	70.36864	-39.40106	0.846976
34.18924	2670.28	70.27388	-39.36543	0.8406833
34.24319	2668.099	70.16735	-39.33035	0.835681
34.29713	2665.929	70.04469	-39.29586	0.8320073
34.35109	2663.775	69.90099	-39.26196	0.8296928
34.40503	2661.643	69.73513	-39.22866	0.8287307
34.45898	2659.541	69.5481	-39.19597	0.8291054
34.51294	2657.468	69.33993	-39.16389	0.8307722
34.56688	2655.426	69.11258	-39.13242	0.8336622
34.62083	2653.412	68.87447	-39.10153	0.8376698
34.67479	2651.418	68.63912	-39.07118	0.8426694
34.72873	2649.435	68.42262	-39.04132	0.8485036
34.78268	2647.457	68.23641	-39.01189	0.8549751
34.83663	2645.479	68.08354	-38.98287	0.8618682
34.89058	2643.497	67.96089	-38.9542	0.8689561
34.94453	2641.504	67.86404	-38.92589	0.8760166
34.99848	2639.495	67.78777	-38.89792	0.8828411
35.05243	2637.467	67.7254	-38.8703	0.8892342
35.10638	2635.423	67.67376	-38.84304	0.8950325
35.16033	2633.365	67.63611	-38.81616	0.9001108
35.21428	2631.298	67.62047	-38.78967	0.9043858
35.26823	2629.224	67.63292	-38.76361	0.907802
35.32218	2627.144	67.67651	-38.73803	0.9103361
35.37613	2625.06	67.74705	-38.713	0.9120066
35.43008	2622.973	67.83538	-38.68862	0.9128698
35.48403	2620.884	67.93034	-38.66498	0.9130011
35.53798	2618.791	68.02443	-38.64219	0.9125106
35.59193	2616.694	68.11121	-38.62033	0.91153
35.64588	2614.592	68.18922	-38.59946	0.9102089
35.69983	2612.48	68.25787	-38.57961	0.9087033
35.75378	2610.361	68.31528	-38.56078	0.9071676
35.80773	2608.233	68.36069	-38.54293	0.9057531
35.86168	2606.094	68.39421	-38.526	0.9045933
35.91563	2603.94	68.41734	-38.50994	0.903832
35.96958	2601.777	68.43727	-38.49463	0.9036141
36.02353	2599.614	68.46274	-38.47999	0.9040977
36.07748	2597.461	68.49983	-38.46593	0.9054435
36.13143	2595.327	68.5486	-38.45233	0.9078206
36.18538	2593.213	68.60426	-38.43912	0.9114004
36.23933	2591.123	68.66033	-38.42621	0.9163546
36.29328	2589.056	68.7094	-38.41352	0.9228484
36.34723	2587.01	68.74598	-38.40098	0.9310458
36.40118	2584.978	68.76505	-38.3885	0.9411004
36.45513	2582.952	68.76131	-38.37603	0.9531573
36.50908	2580.926	68.7265	-38.36347	0.9673446
36.56303	2578.896	68.65723	-38.35076	0.9837693
36.61698	2576.859	68.55643	-38.3378	1.002499
36.67093	2574.813	68.43743	-38.32451	1.023571
36.72488	2572.753	68.31604	-38.31077	1.046987
36.77883	2570.683	68.20478	-38.29649	1.072698
36.83278	2568.604	68.10974	-38.28159	1.10062
36.88673	2566.519	68.03285	-38.26602	1.130634
36.94068	2564.431	67.97221	-38.24972	1.162589
36.99463	2562.341	67.91817	-38.23265	1.196288
37.04858	2560.248	67.85975	-38.21479	1.231489
37.10253	2558.158	67.79145	-38.19611	1.267905
37.15648	2556.076	67.71178	-38.17662	1.305232
37.21043	2554.005	67.61938	-38.15636	1.343149
37.26437	2551.944	67.51749	-38.13534	1.381313
37.31833	2549.89	67.40849	-38.11358	1.419363
37.37228	2547.837	67.29395	-38.09113	1.456921
37.42622	2545.783	67.17117	-38.06802	1.493592
37.48018	2543.725	67.03899	-38.04429	1.529003
37.53412	2541.663	66.8972	-38.02	1.562799
37.58807	2539.6	66.74956	-37.99518	1.59467
37.64202	2537.535	66.59878	-37.96989	1.624341
37.69597	2535.471	66.44314	-37.94417	1.651574
37.74992	2533.415	66.27957	-37.91802	1.676147
37.80387	2531.369	66.10661	-37.89145	1.697846
37.85782	2529.335	65.92339	-37.86442	1.716459
37.91177	2527.307	65.73261	-37.83693	1.731772
37.96572	2525.281	65.54077	-37.80893	1.743586
38.01967	2523.253	65.35592	-37.7804	1.751741
38.07362	2521.22	65.18575	-37.75132	1.756125
38.12757	2519.183	65.03335	-37.72168	1.75668
38.18152	2517.145	64.89879	-37.69146	1.753416
38.23547	2515.113	64.78264	-37.66064	1.746392
38.28942	2513.093	64.68929	-37.62919	1.735723
38.34337	2511.09	64.62425	-37.5971	1.721577
38.39732	2509.105	64.58778	-37.56431	1.704175
38.45127	2507.134	64.57027	-37.53082	1.683783
38.50522	2505.17	64.55685	-37.49658	1.660722
38.55917	2503.204	64.53029	-37.46162	1.63534
38.61312	2501.226	64.47774	-37.42594	1.608006
38.66707	2499.231	64.39207	-37.38958	1.579088
38.72102	2497.218	64.27535	-37.35259	1.548943
38.77497	2495.185	64.13534	-37.31503	1.517924
38.82892	2493.138	63.9859	-37.27696	1.486359
38.88287	2491.084	63.84288	-37.23845	1.454557
38.93682	2489.028	63.71529	-37.19959	1.422792
38.99077	2486.97	63.60453	-37.16043	1.391302
39.04472	2484.915	63.50962	-37.12105	1.360277
39.09867	2482.865	63.42551	-37.08153	1.32989
39.15262	2480.824	63.34716	-37.04195	1.30028
39.20657	2478.792	63.26937	-37.00238	1.271589
39.26052	2476.767	63.1876	-36.96289	1.243924
39.31447	2474.75	63.09942	-36.9235	1.217384
39.36842	2472.736	63.00266	-36.88419	1.19202
39.42237	2470.722	62.89472	-36.84497	1.167863
39.47632	2468.707	62.77472	-36.80584	1.144924
39.53027	2466.689	62.64668	-36.76679	1.123209
39.58422	2464.668	62.52132	-36.72786	1.102729
39.63817	2462.642	62.41054	-36.68908	1.083529
39.69212	2460.607	62.32236	-36.6505	1.065656
39.74607	2458.569	62.26207	-36.61217	1.049155
39.80002	2456.535	62.23101	-36.57417	1.034043
39.85397	2454.523	62.22457	-36.53655	1.020289
39.90792	2452.542	62.24109	-36.4994	1.007803
39.96186	2450.599	62.28046	-36.46281	0.996441
40.01582	2448.688	62.34341	-36.42686	0.9860195
40.06977	2446.802	62.42673	-36.39166	0.9763227
40.12371	2444.929	62.52081	-36.35727	0.967127
40.17767	2443.056	62.61418	-36.32376	0.9581937
40.23162	2441.172	62.69949	-36.29118	0.9492818
40.28556	2439.273	62.77228	-36.25954	0.9401699
40.33952	2437.36	62.83209	-36.22884	0.930664
40.39346	2435.434	62.88065	-36.19901	0.9206275
40.44741	2433.498	62.92159	-36.16998	0.9099901
40.50137	2431.557	62.96032	-36.14166	0.8987576
40.55531	2429.614	62.99907	-36.11396	0.8869979
40.60926	2427.671	63.03622	-36.08682	0.8748426
40.66322	2425.728	63.06862	-36.0602	0.8624647
40.71716	2423.787	63.08932	-36.03408	0.8500838
40.77111	2421.847	63.09166	-36.00846	0.8379416
40.82506	2419.914	63.07143	-35.98337	0.8262851
40.87901	2417.986	63.02608	-35.95885	0.8153556
40.93296	2416.063	62.95644	-35.93496	0.8053622
40.98691	2414.144	62.86515	-35.91176	0.7964835
41.04086	2412.23	62.75391	-35.88929	0.7888395
41.09481	2410.321	62.62699	-35.86764	0.7825208
41.14876	2408.411	62.48753	-35.84686	0.7775895
41.20271	2406.499	62.33768	-35.82699	0.774071
41.25666	2404.584	62.18177	-35.80807	0.7719703
41.31061	2402.665	62.02531	-35.7901	0.771261
41.36456	2400.743	61.86999	-35.77308	0.7718825
41.41851	2398.817	61.71654	-35.75701	0.773739
41.47246	2396.893	61.5638	-35.74191	0.7766967
41.52641	2394.977	61.4136	-35.72781	0.7805962
41.58036	2393.076	61.27079	-35.71476	0.7852629
41.63431	2391.192	61.14086	-35.70281	0.7905431
41.68826	2389.319	61.02633	-35.69201	0.7962823
41.74221	2387.449	60.92948	-35.68241	0.802339
41.79616	2385.577	60.84769	-35.67405	0.8085639
41.85011	2383.704	60.77855	-35.66695	0.8148258
41.90406	2381.83	60.71888	-35.66117	0.8209845
41.95801	2379.953	60.66799	-35.65676	0.8269155
42.01196	2378.065	60.62854	-35.65375	0.8325022
42.06591	2376.157	60.60137	-35.65218	0.8376547
42.11986	2374.226	60.58472	-35.65204	0.8423007
42.17381	2372.274	60.57642	-35.65332	0.8463768
42.22776	2370.307	60.57235	-35.65597	0.8498195
42.28171	2368.329	60.56793	-35.6599	0.8525748
42.33566	2366.341	60.56223	-35.66501	0.8545942
42.38961	2364.348	60.55744	-35.67112	0.8558438
42.44356	2362.354	60.55687	-35.67801	0.8563314
42.49751	2360.36	60.56298	-35.68541	0.8561097
42.55146	2358.369	60.57679	-35.69299	0.8552729
42.60541	2356.385	60.59618	-35.70039	0.8539631
42.65936	2354.41	60.61734	-35.70726	0.8523589
42.71331	2352.442	60.63616	-35.71324	0.8506922
42.76726	2350.479	60.64889	-35.71798	0.8492317
42.82121	2348.516	60.65237	-35.72116	0.8482781
42.87516	2346.554	60.64612	-35.72246	0.848159
42.92911	2344.597	60.62963	-35.7216	0.8491982
42.98306	2342.654	60.60009	-35.71832	0.8517052
43.03701	2340.732	60.55519	-35.7124	0.8559449
43.09095	2338.832	60.4941	-35.70366	0.8621253
43.14491	2336.955	60.41874	-35.69196	0.8703746
43.19886	2335.095	60.3332	-35.67719	0.8807437
43.2528	2333.25	60.24062	-35.65932	0.893212
43.30676	2331.415	60.14638	-35.63831	0.9076903
43.36071	2329.584	60.0582	-35.6142	0.9240277
