T[Â°C]	350nm [counts / mm]	S.D.
20.00043	2863.339	75.59702
20.05438	2859.732	77.16964
20.10833	2859.372	70.80711
20.16228	2861.227	74.37827
20.21623	2855.223	72.61822
20.27018	2856.14	74.24464
20.32413	2851.918	76.59414
20.37808	2847.896	72.15951
20.43203	2846.365	73.48489
20.48598	2846.242	70.24035
20.53993	2845.422	69.04633
20.59388	2839.938	72.01681
20.64783	2838.505	75.13958
20.70178	2838.333	72.63484
20.75573	2832.7	70.25735
20.80968	2830.399	70.71179
20.86363	2829.706	72.64314
20.91758	2827.763	68.73738
20.97153	2827.061	61.48239
21.02548	2823.632	70.00922
21.07943	2822.812	72.67539
21.13338	2823.262	73.78004
21.18733	2819.501	70.3457
21.24128	2817.242	72.06202
21.29523	2809.571	72.89407
21.34918	2809.13	71.08459
21.40313	2808.29	68.74666
21.45708	2804.938	70.99129
21.51103	2802.419	69.33194
21.56498	2800.476	70.20953
21.61893	2798.171	67.58683
21.67288	2794.093	69.76679
21.72683	2792.022	74.04086
21.78078	2788.885	70.90746
21.83473	2788.175	73.45584
21.88868	2787.951	74.31615
21.94263	2788.342	70.89531
21.99658	2781.316	70.72414
22.05053	2784.375	76.64352
22.10448	2780.557	70.69334
22.15843	2778.567	68.44982
22.21238	2774.777	71.94264
22.26632	2774.684	69.17942
22.32027	2771.137	67.6792
22.37423	2771.136	74.09222
22.42817	2765.988	71.13078
22.48212	2765.994	70.2173
22.53607	2763.37	72.79389
22.59002	2760.961	73.64906
22.64397	2757.795	75.08035
22.69792	2755.1	73.37305
22.75187	2756.144	72.0406
22.80582	2751.549	66.48216
22.85977	2749.234	66.96629
22.91372	2750.654	71.87962
22.96767	2745.371	72.77646
23.02162	2741.381	73.38681
23.07557	2736.315	72.1897
23.12952	2735.331	73.34137
23.18347	2735.432	71.92019
23.23742	2732.636	69.42148
23.29137	2730.382	71.92311
23.34532	2729.24	72.76057
23.39927	2726.019	69.09399
23.45322	2720.823	66.61536
23.50717	2718.844	65.80789
23.56112	2719.504	68.73355
23.61507	2717.993	70.49655
23.66902	2714.74	66.96127
23.72297	2716.643	70.72285
23.77692	2718.906	72.55946
23.83087	2712.512	72.23036
23.88482	2713.151	74.12107
23.93877	2707.519	67.11003
23.99272	2707.514	68.57626
24.04667	2706.784	67.21745
24.10062	2703.883	66.76668
24.15457	2698.345	68.49903
24.20852	2699.661	69.26537
24.26247	2693.225	66.30699
24.31642	2691.43	61.81477
24.37037	2688.726	63.72434
24.42432	2684.915	61.57788
24.47827	2684.519	68.00202
24.53222	2683.252	67.87802
24.58617	2682.68	68.03475
24.64012	2679.607	69.23743
24.69407	2675.693	70.95363
24.74802	2675.497	70.50168
24.80197	2670.973	66.79249
24.85592	2669.76	69.76753
24.90987	2667.387	70.3203
24.96382	2665.315	71.12074
25.01777	2663.151	67.77833
25.07172	2662.523	65.98285
25.12567	2657.704	63.24511
25.17962	2657.992	66.41425
25.23357	2660.313	65.9692
25.28752	2655.717	64.06809
25.34146	2648.045	67.4766
25.39541	2647.378	65.41074
25.44937	2645.223	67.62755
25.50331	2642.804	66.71092
25.55726	2639.227	65.88041
25.61121	2639.176	67.20309
25.66516	2640.35	69.91835
25.71911	2636.472	69.30444
25.77306	2636.17	66.52737
25.82701	2632.868	65.35175
25.88096	2627.586	67.46412
25.93491	2623.623	66.13369
25.98886	2626.902	67.06111
26.04281	2621.797	65.08358
26.09676	2622.1	68.5029
26.15071	2619.805	66.90797
26.20466	2619.179	66.57716
26.25861	2618.061	68.24182
26.31256	2608.919	68.55688
26.36651	2608.959	67.87727
26.42046	2609.483	64.21632
26.47441	2609.649	64.25375
26.52836	2602.074	67.77414
26.58231	2600.715	66.81265
26.63626	2599.436	67.11086
26.69021	2596.411	68.01624
26.74416	2595.13	67.93647
26.79811	2594.081	65.79807
26.85206	2592.992	65.32883
26.90601	2590.429	64.48306
26.95996	2587.104	66.54487
27.01391	2585.031	69.02563
27.06786	2582.349	66.16581
27.12181	2579.795	65.12862
27.17576	2577.649	66.05305
27.22971	2575.503	62.36536
27.28366	2577.354	60.92547
27.33761	2574.948	62.37055
27.39156	2571.49	63.74861
27.44551	2569.734	65.62537
27.49946	2564.405	64.12382
27.55341	2561.054	65.90717
27.60736	2560.714	62.92642
27.66131	2561.015	64.29871
27.71526	2558.029	65.15899
27.76921	2555.74	66.14815
27.82316	2554.353	68.703
27.87711	2551.389	62.40576
27.93106	2548.616	59.0776
27.98501	2541.888	64.72852
28.03896	2544.325	60.17673
28.09291	2542.11	65.05703
28.14686	2538.281	62.22958
28.20081	2536.489	61.56141
28.25476	2533.949	61.26591
28.3087	2534.575	58.49393
28.36266	2531.984	61.67943
28.4166	2529.836	62.53855
28.47055	2529.5	64.54782
28.5245	2526.516	61.53746
28.57845	2522.573	62.05598
28.6324	2520.274	61.96632
28.68635	2521.927	66.71597
28.7403	2517.743	64.78783
28.79425	2516.571	61.61871
28.8482	2514.354	63.99898
28.90215	2514.244	64.47256
28.9561	2506.831	63.49166
29.01005	2506.635	62.98705
29.064	2504.743	60.83704
29.11795	2503.771	60.78961
29.1719	2505.402	62.67972
29.22585	2498.608	63.00449
29.2798	2497.507	62.39019
29.33375	2496.06	60.25035
29.3877	2488.465	58.65947
29.44165	2486.994	62.98791
29.4956	2486.515	58.54035
29.54955	2483.264	58.95364
29.6035	2489.894	59.5463
29.65745	2481.795	65.32468
29.7114	2480.183	65.87775
29.76535	2479.736	65.12323
29.8193	2476.962	63.81394
29.87325	2475.68	68.7681
29.9272	2476.049	64.49388
29.98115	2472.818	62.50342
30.0351	2467.386	65.01754
30.08905	2469.25	64.08165
30.143	2466.266	59.8993
30.19695	2461.784	59.04701
30.2509	2462.158	64.769
30.30485	2457.817	62.91079
30.3588	2451.447	65.85124
30.41275	2454.175	65.42912
30.4667	2456.903	65.6736
30.52065	2452.067	66.70822
30.5746	2448.274	62.18881
30.62855	2446.002	59.20588
30.6825	2441.648	58.54686
30.73645	2440.501	61.08884
30.7904	2441.567	63.54724
30.84435	2441.844	63.13172
30.8983	2439.797	63.01697
30.95225	2434.764	62.33158
31.0062	2433.768	64.16747
31.06015	2431.421	66.36996
31.1141	2428.63	64.68842
31.16805	2426.661	59.85234
31.222	2424.358	60.47804
31.27595	2421.875	61.01597
31.3299	2422.38	59.09829
31.38384	2417.682	52.85213
31.4378	2416.655	55.89926
31.49174	2409.331	58.81584
31.54569	2407.687	61.63671
31.59964	2408.641	59.78902
31.65359	2408.026	57.08512
31.70754	2404.329	55.02967
31.76149	2406.518	59.34431
31.81544	2402.341	58.51576
31.86939	2401.762	67.1855
31.92334	2397.763	60.1325
31.97729	2398.691	59.30281
32.03124	2393.177	61.49764
32.08519	2391.585	63.19355
32.13914	2390.272	60.59233
32.19309	2390.816	66.37841
32.24704	2386.251	58.02618
32.30099	2385.406	58.01483
32.35494	2380.225	53.43687
32.40889	2380.72	57.11665
32.46284	2375.823	60.47768
32.51679	2376.2	57.87125
32.57074	2377.188	55.67791
32.62469	2373.355	54.54699
32.67864	2367.453	60.82935
32.73259	2365.415	57.30623
32.78654	2364.946	60.15535
32.84049	2363.247	58.46218
32.89444	2361.606	58.53056
32.94839	2364.711	55.64856
33.00234	2354.105	60.97959
33.05629	2356.415	60.99366
33.11024	2352.59	57.5729
33.16419	2353.508	59.71064
33.21814	2354.551	55.69816
33.27209	2348.823	54.96357
33.32604	2346.909	56.35263
33.37999	2344.857	57.63458
33.43394	2341.521	55.12012
33.48789	2339.455	56.53435
33.54184	2334.25	64.61951
33.59579	2333.639	60.5033
33.64974	2334.519	60.37498
33.70369	2332.558	58.93441
33.75764	2328.81	59.97382
33.81159	2328.151	60.38628
33.86554	2325.708	63.17686
33.91949	2323.792	61.40435
33.97343	2318.169	64.65604
34.02739	2316.404	62.81847
34.08134	2317.632	62.99007
34.13528	2313.128	62.51262
34.18924	2309.336	54.95346
34.24319	2309.606	57.20502
34.29713	2310.474	56.30557
34.35109	2306.812	57.22596
34.40503	2303.606	60.69081
34.45898	2302.474	59.05592
34.51294	2301.345	55.85335
34.56688	2301.573	56.52308
34.62083	2296.86	57.62418
34.67479	2292.79	57.24287
34.72873	2293.144	58.66759
34.78268	2294.068	57.73691
34.83663	2293.894	56.60155
34.89058	2288.157	58.64328
34.94453	2285.771	56.55547
34.99848	2282.64	53.32927
35.05243	2281.838	52.83795
35.10638	2280.229	57.86685
35.16033	2278.219	58.81387
35.21428	2277.75	56.30742
35.26823	2276.284	55.82731
35.32218	2272.025	54.11304
35.37613	2272.176	52.79185
35.43008	2271.623	53.9158
35.48403	2271.012	57.3819
35.53798	2261.717	55.68167
35.59193	2260.848	57.22203
35.64588	2262.527	57.0703
35.69983	2259.333	57.01217
35.75378	2258.181	55.45008
35.80773	2258.381	57.36388
35.86168	2251.707	54.31772
35.91563	2253.564	52.86411
35.96958	2250.663	58.74598
36.02353	2250.87	59.36776
36.07748	2246.734	59.91965
36.13143	2244.157	58.83119
36.18538	2241.133	55.25948
36.23933	2239.637	53.93399
36.29328	2234.781	58.0463
36.34723	2233.993	55.51013
36.40118	2227.783	57.32952
36.45513	2229.605	56.17707
36.50908	2226.414	56.1909
36.56303	2227.058	56.86081
36.61698	2225.46	54.32578
36.67093	2221.904	51.56396
36.72488	2217.68	53.56912
36.77883	2220.001	54.26398
36.83278	2217.814	51.84378
36.88673	2219.467	55.20586
36.94068	2214.612	54.80764
36.99463	2213.992	56.44366
37.04858	2211.05	58.30838
37.10253	2209.651	58.10153
37.15648	2205.929	55.00891
37.21043	2203.124	52.4986
37.26437	2201.147	58.49942
37.31833	2201.395	53.46825
37.37228	2196.954	54.82856
37.42622	2194.937	54.74266
37.48018	2194.738	55.27985
37.53412	2191.939	53.33149
37.58807	2187.064	53.21954
37.64202	2186.955	56.12372
37.69597	2184.678	56.70788
37.74992	2186.11	52.36271
37.80387	2182.303	52.43781
37.85782	2182.11	55.20032
37.91177	2178.537	56.32845
37.96572	2176.926	58.113
38.01967	2174.534	59.79952
38.07362	2175.47	59.07672
38.12757	2170.529	58.6522
38.18152	2170.919	55.87411
38.23547	2167.452	52.81336
38.28942	2164.979	53.00853
38.34337	2163.306	54.05502
38.39732	2162.539	52.8268
38.45127	2160.444	51.92628
38.50522	2156.739	52.95517
38.55917	2157.081	52.11574
38.61312	2153.486	52.76217
38.66707	2150.878	53.17479
38.72102	2149.981	51.36339
38.77497	2150.625	52.51126
38.82892	2147.838	53.91313
38.88287	2144.857	54.86937
38.93682	2145.261	54.03559
38.99077	2142.958	54.71241
39.04472	2139.144	54.32851
39.09867	2135.205	51.19211
39.15262	2133.039	54.16346
39.20657	2136.939	50.34691
39.26052	2130.724	50.99038
39.31447	2133.415	50.6561
39.36842	2127.695	48.90095
39.42237	2130.438	46.27442
39.47632	2121.675	56.20395
39.53027	2121.967	52.09576
39.58422	2119.869	51.29631
39.63817	2118.098	50.92645
39.69212	2113.66	50.24011
39.74607	2111.74	52.54786
39.80002	2110.284	49.82867
39.85397	2113.141	49.59412
39.90792	2106.571	51.17076
39.96186	2104.883	51.35453
40.01582	2101.676	51.90173
40.06977	2105.47	51.31193
40.12371	2100.859	52.68856
40.17767	2100.764	51.19878
40.23162	2097.083	54.54171
40.28556	2099.373	54.75162
40.33952	2093.113	53.86656
40.39346	2095.014	54.70849
40.44741	2091.433	52.05283
40.50137	2092.734	53.67096
40.55531	2085.778	55.10506
40.60926	2086.51	50.8512
40.66322	2083.575	49.78331
40.71716	2082.783	51.897
40.77111	2077.792	49.91392
40.82506	2077.466	51.0196
40.87901	2072.011	54.20672
40.93296	2070.906	53.22658
40.98691	2065.693	52.59961
41.04086	2066.742	50.16866
41.09481	2065.213	49.94055
41.14876	2065.664	47.77067
41.20271	2062.705	50.18934
41.25666	2061.356	50.9222
41.31061	2056.138	53.94763
41.36456	2058.168	52.28566
41.41851	2055.352	48.2827
41.47246	2054.187	49.00423
41.52641	2051.2	50.7059
41.58036	2049.613	51.39441
41.63431	2047.024	49.62005
41.68826	2046.458	46.49015
41.74221	2045.744	46.32667
41.79616	2044.635	47.52582
41.85011	2042.503	46.93039
41.90406	2040.198	47.09295
41.95801	2039.241	49.53354
42.01196	2035.501	49.40494
42.06591	2034.329	48.62435
42.11986	2031.386	50.94381
42.17381	2031.66	52.05777
42.22776	2029.948	51.93864
42.28171	2031.283	55.08171
42.33566	2026.415	50.44923
42.38961	2023.186	50.72839
42.44356	2020.835	50.08985
42.49751	2021.601	48.75704
42.55146	2018.132	53.60483
42.60541	2019.835	54.3875
42.65936	2013.963	45.6769
42.71331	2013.183	48.10438
42.76726	2009.003	52.46491
42.82121	2009.315	50.9249
42.87516	2003.918	48.80951
42.92911	2008.886	45.54971
42.98306	2002.736	50.45647
43.03701	2004.611	46.8657
43.09095	1997.571	48.47046
43.14491	1996.807	48.50135
43.19886	1995.063	51.3722
43.2528	1994.832	50.33447
43.30676	1992.905	51.79442
43.36071	1994.468	50.74749
43.41465	1988.512	49.3447
43.46861	1988.931	51.29821
43.52255	1982.821	47.5807
43.5765	1980.814	47.44013
43.63046	1979.302	50.67266
43.6844	1978.678	48.75735
43.73835	1976.627	48.65651
43.7923	1979.447	50.93345
43.84625	1972.403	48.48445
43.9002	1975.423	46.27546
43.95415	1969.903	43.9358
44.0081	1971.655	45.03191
44.06205	1963.009	49.13329
44.116	1965.722	46.01345
44.16995	1961.944	51.57796
44.2239	1961.394	52.34533
44.27785	1955.914	49.64867
44.3318	1956.327	48.72795
44.38575	1958.048	53.80014
44.4397	1956.16	52.35996
44.49365	1952.043	57.33708
44.5476	1952.453	50.98299
44.60155	1946.831	47.51614
44.6555	1947.225	46.78907
44.70945	1945.399	44.51839
44.7634	1946.941	47.03003
44.81735	1936.245	49.19917
44.8713	1938.739	50.24178
44.92525	1933.78	47.20103
44.9792	1937.163	47.8181
45.03315	1933.47	44.57912
45.0871	1931.761	46.64102
45.14105	1930.172	48.85756
45.195	1930.022	48.02093
45.24895	1926.387	46.08613
45.3029	1927.711	46.54311
45.35685	1926.137	46.7486
45.4108	1923.569	43.91895
45.46475	1921.451	44.59819
45.5187	1918.427	49.21244
45.57265	1916.067	51.35123
45.6266	1915.509	52.36095
45.68055	1917.371	48.93972
45.7345	1913.95	46.46273
45.78845	1913.3	47.98974
45.8424	1908.804	47.39577
45.89635	1908.778	48.76237
45.95029	1905.067	45.34711
46.00425	1907.046	45.43946
46.0582	1903.206	46.95797
46.11214	1902.499	44.63107
46.1661	1897.121	43.49099
46.22005	1897.964	41.60409
46.27399	1894.644	43.14186
46.32795	1898.602	41.43838
46.38189	1892.646	44.8406
46.43584	1891.128	45.5625
46.4898	1888.579	47.38771
46.54374	1888.362	44.7744
46.59769	1884.414	43.1427
46.65165	1885.939	46.38511
46.70559	1879.471	45.72878
46.75954	1879.994	47.76125
46.81349	1877.961	44.11288
46.86744	1878.047	44.05478
46.92139	1869.992	44.78681
46.97534	1871.494	46.04833
47.02929	1867.076	45.52939
47.08324	1867.791	44.58182
47.13719	1864.175	47.53176
47.19114	1865.35	45.50414
47.24509	1863.195	47.57418
47.29904	1864.371	49.87758
47.35299	1857.634	45.30825
47.40694	1859.52	46.03377
47.46089	1854.535	46.26696
47.51484	1855.52	47.53923
47.56879	1852.019	48.29718
47.62274	1851.878	42.43507
47.67669	1851.546	50.91178
47.73064	1848.583	42.43578
47.78459	1844.393	49.17376
47.83854	1842.886	48.77407
47.89249	1838.871	46.02512
47.94644	1838.979	47.01389
48.00039	1834.077	48.91295
48.05434	1835.954	45.11824
48.10829	1834.16	43.75023
48.16224	1833.322	44.59761
48.21619	1827.774	43.26126
48.27014	1829.1	44.56626
48.32409	1823.288	42.45307
48.37804	1825.161	45.99121
48.43199	1819.746	43.91984
48.48594	1822.238	46.46451
48.53989	1818.663	43.14017
48.59384	1818.694	41.88689
48.64779	1816.914	45.71906
48.70174	1814.184	45.71799
48.75569	1810.551	43.93829
48.80964	1813.165	42.27668
48.86359	1810.618	42.5609
48.91754	1807.554	42.61521
48.97149	1805.663	40.77201
49.02544	1802.152	40.36352
49.07938	1804.031	41.36992
49.13334	1800.378	43.14261
49.18729	1800.192	44.78584
49.24123	1799.78	45.52412
49.29519	1799.924	42.88782
49.34914	1795.645	40.63239
49.40308	1795.118	44.79696
49.45704	1793.867	45.74978
49.51098	1793.102	48.65455
49.56493	1790.208	45.13561
49.61889	1790.563	41.36613
49.67283	1786.626	44.61805
49.72678	1789.313	42.47367
49.78074	1781.496	44.32885
49.83468	1779.409	43.995
49.88863	1776.786	41.31662
49.94258	1782.303	39.54082
49.99653	1773.488	43.16618
50.05048	1775.162	37.06909
50.10443	1770.282	41.86908
50.15838	1770.3	41.42292
50.21233	1770.133	42.15857
50.26628	1771.025	39.93529
50.32023	1763.795	39.4726
50.37418	1766.292	41.23115
50.42813	1759.19	45.02926
50.48208	1760.063	43.97984
50.53603	1758.521	39.74122
50.58998	1759.853	39.33826
50.64393	1753.907	41.72732
50.69788	1754.118	41.89975
50.75183	1749.709	44.4598
50.80578	1753.077	43.32286
50.85973	1746.009	44.02158
50.91368	1747.672	46.11759
50.96763	1746.129	44.72943
51.02158	1746.994	42.5956
51.07553	1739.916	45.33696
51.12948	1742.626	41.18097
51.18343	1738.015	42.25753
51.23738	1736.244	39.27193
51.29133	1734.404	46.63649
51.34528	1735.651	42.23169
51.39923	1726.893	44.50722
51.45318	1729.848	41.30297
51.50713	1729.045	44.23781
51.56108	1728.4	45.49733
51.61503	1724.446	47.68282
51.66898	1725.934	45.75047
51.72293	1716.87	44.939
51.77688	1718.272	42.72508
51.83083	1716.63	45.40333
51.88478	1717.271	43.79407
51.93872	1713.899	42.32958
51.99268	1715.055	42.0477
52.04663	1709.035	42.35139
52.10057	1712.484	42.35323
52.15453	1708.729	39.23624
52.20848	1709.459	39.659
52.26242	1706.484	43.86068
52.31638	1705.122	41.13465
52.37032	1701.161	40.58836
52.42427	1701.514	40.04431
52.47823	1698.729	38.89468
52.53217	1696.904	40.54502
52.58612	1694.028	41.25988
52.64007	1693.692	39.76836
52.69402	1692.83	40.13939
52.74797	1689.687	39.56412
52.80192	1690.793	37.62213
52.85587	1690.627	37.85849
52.90982	1688.622	38.56015
52.96377	1684.328	40.55727
53.01772	1685.387	38.72061
53.07167	1682.051	37.91995
53.12562	1684.493	37.2754
53.17957	1678.792	40.2967
53.23352	1680.359	41.24747
53.28747	1674.465	39.36455
53.34142	1674.879	39.32391
53.39537	1672.031	37.45942
53.44932	1674.823	37.06522
53.50327	1669.116	39.32678
53.55722	1672.224	38.7826
53.61117	1667.125	41.39498
53.66512	1667.889	35.81183
53.71907	1659.603	40.32808
53.77302	1663.188	37.22393
53.82697	1661.462	39.0272
53.88092	1662.213	41.58245
53.93487	1657.732	38.81219
53.98882	1657.268	38.2531
54.04277	1651.512	38.69237
54.09672	1653.841	39.85217
54.15067	1645.212	39.10756
54.20462	1647.07	37.74999
54.25857	1644.443	37.21189
54.31252	1645.843	36.92512
54.36647	1640.774	38.47788
54.42042	1642.757	40.25331
54.47437	1640.123	43.85155
54.52832	1642.966	39.64338
54.58227	1634.945	38.36524
54.63622	1637.059	41.18093
54.69017	1630.977	42.97803
54.74412	1633.538	43.08171
54.79807	1627.616	45.59867
54.85202	1628.682	42.59785
54.90597	1622.192	38.86174
54.95992	1624.809	38.29221
55.01387	1622.399	40.54075
55.06781	1623.903	37.95679
55.12177	1620.709	42.06116
55.17572	1620.903	39.34317
55.22966	1616.03	36.6204
55.28362	1615.86	35.91417
55.33757	1611.984	35.90084
55.39151	1609.683	36.82072
55.44547	1610.424	38.5476
55.49941	1611.011	40.19748
55.55336	1611.854	40.16127
55.60732	1608.556	40.22312
55.66126	1609.527	39.74349
55.71521	1603.605	36.34918
55.76917	1606.403	38.72206
55.82311	1602.94	40.54255
55.87706	1604.265	42.20101
55.93101	1598.832	38.14672
55.98496	1599.598	37.38865
56.03891	1593.44	36.53298
56.09286	1594.763	36.90924
56.14681	1587.093	38.04861
56.20076	1593.053	38.23169
56.25471	1586.403	38.01638
56.30866	1589.343	35.48987
56.36261	1582.969	38.35055
56.41656	1585.332	37.52951
56.47051	1578.531	36.66265
56.52446	1581.258	33.98262
56.57841	1575.687	38.53193
56.63236	1579.278	35.84741
56.68631	1572.854	36.6738
56.74026	1578.235	36.14128
56.79421	1572.032	37.49723
56.84816	1574.644	36.63145
56.90211	1567.433	37.83828
56.95606	1568.745	38.98546
57.01001	1566.353	38.0213
57.06396	1567.882	37.62619
57.11791	1558.703	39.75262
57.17186	1562.381	39.07558
57.22581	1557.511	39.84601
57.27976	1558.792	39.48246
57.33371	1552.153	39.36045
57.38766	1556.272	37.27397
57.44161	1550.795	37.91548
57.49556	1554.726	35.37175
57.54951	1552.303	41.72439
57.60346	1552.266	39.63259
57.65741	1546.313	35.48497
57.71136	1545.582	35.73615
57.76531	1543.202	33.90107
57.81926	1545.154	34.97671
57.87321	1542.667	37.55913
57.92715	1542.431	38.30112
57.98111	1541.26	37.80219
58.03506	1539.899	35.90404
58.089	1538.962	35.14214
58.14296	1535.735	35.18203
58.1969	1534.137	34.5147
58.25085	1531.431	36.18279
58.30481	1531.209	37.93199
58.35875	1528.209	36.7576
58.4127	1530.218	36.51557
58.46666	1526.598	36.65328
58.5206	1529.32	36.31814
58.57455	1524.477	33.51337
58.6285	1526.436	35.88206
58.68245	1518.829	37.46177
58.7364	1519.004	38.50911
58.79035	1515.208	36.24805
58.8443	1516.337	31.73407
58.89825	1514.012	35.25068
58.9522	1516.516	35.94038
59.00615	1509.494	35.6716
59.0601	1511.896	35.86617
59.11405	1507.023	41.07533
59.168	1512.609	37.81827
59.22195	1504.001	35.19154
59.2759	1506.431	32.18633
59.32985	1500.848	37.59781
59.3838	1503.192	35.63931
59.43775	1497.478	35.69218
59.4917	1501.471	36.21524
59.54565	1493.346	34.73015
59.5996	1497.269	35.077
59.65355	1490.802	35.7879
59.7075	1494.041	34.14821
59.76145	1489.355	36.88942
59.8154	1491.443	35.68113
59.86935	1485.339	34.15202
59.9233	1489.824	31.99947
59.97725	1482.92	35.81677
60.0312	1489.369	31.31111
60.08515	1477.213	34.45732
60.1391	1481.103	34.31404
60.19305	1477.855	33.06531
60.247	1480.197	36.66675
60.30095	1473.448	41.43426
