T[Â°C]	350nm [counts / mm]	S.D.	First derivative	S.D. of first derivative
20.00043	2864.398	74.31808	-41.40982	1.931225
20.05438	2862.271	74.1054	-41.38167	1.888789
20.10833	2860.142	73.89568	-41.35343	1.846673
20.16228	2858.012	73.68871	-41.3251	1.804898
20.21623	2855.88	73.48475	-41.29668	1.763499
20.27018	2853.747	73.28376	-41.26818	1.722504
20.32413	2851.614	73.08612	-41.23959	1.681949
20.37808	2849.478	72.89169	-41.21091	1.64187
20.43203	2847.342	72.70055	-41.18214	1.602307
20.48598	2845.203	72.51224	-41.1533	1.563299
20.53993	2843.063	72.3265	-41.12437	1.524891
20.59388	2840.92	72.14319	-41.09536	1.487131
20.64783	2838.776	71.96226	-41.06628	1.450066
20.70178	2836.627	71.78345	-41.03712	1.413751
20.75573	2834.475	71.60699	-41.0079	1.37824
20.80968	2832.317	71.43207	-40.97861	1.343583
20.86363	2830.151	71.25843	-40.94926	1.309844
20.91758	2827.974	71.08813	-40.91985	1.277081
20.97153	2825.778	70.92651	-40.89038	1.245351
21.02548	2823.514	70.82771	-40.86085	1.214719
21.07943	2821.243	70.75043	-40.83128	1.185242
21.13338	2818.973	70.69953	-40.80165	1.156981
21.18733	2816.708	70.67915	-40.77198	1.129992
21.24128	2814.451	70.68825	-40.74227	1.104334
21.29523	2812.205	70.72001	-40.7125	1.080059
21.34918	2809.969	70.76627	-40.68269	1.05721
21.40313	2807.744	70.81949	-40.65282	1.035836
21.45708	2805.531	70.8735	-40.6229	1.015959
21.51103	2803.325	70.92774	-40.59292	0.9976104
21.56498	2801.124	70.98194	-40.56289	0.9808016
21.61893	2798.925	71.03203	-40.53278	0.965532
21.67288	2796.729	71.07436	-40.50261	0.951798
21.72683	2794.536	71.1096	-40.47237	0.9395809
21.78078	2792.348	71.14276	-40.44206	0.9288491
21.83473	2790.168	71.17699	-40.41166	0.9195709
21.88868	2788.003	71.21492	-40.38118	0.9117001
21.94263	2785.856	71.25723	-40.3506	0.9051854
21.99658	2783.729	71.30426	-40.31993	0.8999754
22.05053	2781.624	71.35345	-40.28915	0.8960131
22.10448	2779.538	71.4006	-40.25826	0.8932477
22.15843	2777.465	71.44289	-40.22724	0.8916382
22.21238	2775.391	71.4785	-40.19608	0.8911768
22.26632	2773.309	71.50598	-40.16474	0.8919097
22.32027	2771.212	71.52327	-40.13319	0.8939646
22.37423	2769.098	71.52891	-40.10137	0.8976129
22.42817	2766.961	71.52509	-40.0692	0.9033299
22.48212	2764.801	71.51385	-40.03659	0.9118604
22.53607	2762.614	71.49756	-40.00342	0.9242079
22.59002	2760.399	71.47565	-39.96965	0.9414614
22.64397	2758.154	71.44799	-39.94285	0.9671633
22.69792	2755.882	71.41288	-39.91797	0.9929154
22.75187	2753.591	71.36832	-39.89505	1.018469
22.80582	2751.289	71.31159	-39.87407	1.043611
22.85977	2748.987	71.24154	-39.85497	1.068162
22.91372	2746.696	71.16071	-39.83768	1.091991
22.96767	2744.425	71.07531	-39.8221	1.115007
23.02162	2742.183	70.99078	-39.80811	1.137182
23.07557	2739.971	70.90573	-39.79556	1.158523
23.12952	2737.791	70.81934	-39.78431	1.179067
23.18347	2735.642	70.73026	-39.77421	1.198851
23.23742	2733.527	70.63647	-39.76511	1.217921
23.29137	2731.442	70.53792	-39.75685	1.236298
23.34532	2729.384	70.43598	-39.74929	1.253986
23.39927	2727.345	70.32706	-39.74229	1.270974
23.45322	2725.32	70.20469	-39.73569	1.287214
23.50717	2723.302	70.06195	-39.72935	1.302631
23.56112	2721.282	69.8915	-39.72315	1.317119
23.61507	2719.261	69.69083	-39.71696	1.330547
23.66902	2717.237	69.46289	-39.71067	1.34277
23.72297	2715.214	69.21637	-39.70417	1.353645
23.77692	2713.194	68.96655	-39.69739	1.363025
23.83087	2711.175	68.73282	-39.69027	1.370789
23.88482	2709.156	68.53085	-39.68274	1.376835
23.93877	2707.131	68.36564	-39.67477	1.381099
23.99272	2705.095	68.23693	-39.66632	1.383549
24.04667	2703.044	68.14231	-39.65741	1.384183
24.10062	2700.979	68.07811	-39.64805	1.383035
24.15457	2698.894	68.03632	-39.63832	1.38016
24.20852	2696.785	68.00667	-39.62833	1.375653
24.26247	2694.647	67.97626	-39.61817	1.369629
24.31642	2692.476	67.9324	-39.60796	1.362217
24.37037	2690.277	67.86692	-39.59784	1.353549
24.42432	2688.056	67.77875	-39.58793	1.343748
24.47827	2685.82	67.67449	-39.57837	1.332929
24.53222	2683.575	67.56407	-39.56933	1.321203
24.58617	2681.328	67.45825	-39.56097	1.308693
24.64012	2679.083	67.36588	-39.55346	1.295516
24.69407	2676.844	67.29496	-39.54694	1.281806
24.74802	2674.611	67.24886	-39.54157	1.267717
24.80197	2672.387	67.22816	-39.53744	1.253426
24.85592	2670.175	67.22998	-39.53465	1.23911
24.90987	2667.98	67.24867	-39.53325	1.224955
24.96382	2665.805	67.27828	-39.53326	1.21115
25.01777	2663.646	67.31109	-39.53465	1.197886
25.07172	2661.497	67.33798	-39.53735	1.185333
25.12567	2659.352	67.34963	-39.54122	1.173666
25.17962	2657.207	67.33675	-39.5461	1.163032
25.23357	2655.062	67.29504	-39.5518	1.153564
25.28752	2652.918	67.22717	-39.55811	1.145386
25.34146	2650.778	67.14171	-39.5648	1.138605
25.39541	2648.646	67.05042	-39.57163	1.133326
25.44937	2646.521	66.96586	-39.57837	1.129656
25.50331	2644.399	66.89574	-39.58479	1.12769
25.55726	2642.279	66.84254	-39.59066	1.127496
25.61121	2640.16	66.80614	-39.59579	1.129109
25.66516	2638.04	66.78625	-39.6	1.132525
25.71911	2635.917	66.78165	-39.60312	1.137702
25.77306	2633.792	66.79094	-39.60502	1.144556
25.82701	2631.664	66.813	-39.60558	1.152975
25.88096	2629.533	66.84332	-39.60467	1.16282
25.93491	2627.402	66.8742	-39.60218	1.173924
25.98886	2625.276	66.89743	-39.59803	1.186105
26.04281	2623.157	66.90723	-39.59215	1.199167
26.09676	2621.049	66.90304	-39.58453	1.212932
26.15071	2618.95	66.88852	-39.57515	1.227233
26.20466	2616.855	66.8661	-39.56407	1.241929
26.25861	2614.758	66.8373	-39.55133	1.256889
26.31256	2612.65	66.80386	-39.53703	1.271993
26.36651	2610.533	66.76351	-39.52124	1.287107
26.42046	2608.409	66.7121	-39.50409	1.302081
26.47441	2606.285	66.64535	-39.48568	1.316748
26.52836	2604.166	66.56287	-39.46615	1.330937
26.58231	2602.056	66.46722	-39.44564	1.34449
26.63626	2599.953	66.35998	-39.42428	1.35726
26.69021	2597.85	66.2421	-39.40221	1.369126
26.74416	2595.741	66.11449	-39.37955	1.379987
26.79811	2593.624	65.98048	-39.35643	1.389766
26.85206	2591.5	65.84435	-39.33296	1.398414
26.90601	2589.375	65.71112	-39.30927	1.405895
26.95996	2587.253	65.58705	-39.28547	1.412188
27.01391	2585.136	65.47338	-39.26162	1.417267
27.06786	2583.025	65.36704	-39.23778	1.421092
27.12181	2580.914	65.26337	-39.21393	1.4236
27.17576	2578.798	65.15653	-39.19004	1.424716
27.22971	2576.673	65.04328	-39.16604	1.424358
27.28366	2574.536	64.91924	-39.14189	1.422448
27.33761	2572.39	64.78148	-39.11751	1.418901
27.39156	2570.234	64.63008	-39.09284	1.413634
27.44551	2568.069	64.46792	-39.06783	1.406562
27.49946	2565.894	64.2989	-39.04239	1.397597
27.55341	2563.713	64.12719	-39.01645	1.386645
27.60736	2561.533	63.95874	-38.98993	1.373609
27.66131	2559.358	63.79735	-38.96278	1.358396
27.71526	2557.191	63.64531	-38.93494	1.340917
27.76921	2555.033	63.50544	-38.90635	1.321118
27.82316	2552.884	63.38372	-38.87697	1.298975
27.87711	2550.743	63.28437	-38.84677	1.274511
27.93106	2548.609	63.20533	-38.8157	1.247788
27.98501	2546.482	63.14125	-38.78373	1.218921
28.03896	2544.365	63.08607	-38.75085	1.18807
28.09291	2542.259	63.03436	-38.7171	1.155442
28.14686	2540.164	62.98203	-38.68253	1.121304
28.20081	2538.079	62.92522	-38.64723	1.085968
28.25476	2536.004	62.86308	-38.61129	1.049803
28.3087	2533.94	62.79863	-38.57481	1.013211
28.36266	2531.885	62.73499	-38.53791	0.9766128
28.4166	2529.838	62.67561	-38.50071	0.9404388
28.47055	2527.8	62.6212	-38.46332	0.9050885
28.5245	2525.769	62.57153	-38.42583	0.8709427
28.57845	2523.741	62.52744	-38.38834	0.8383631
28.6324	2521.71	62.48905	-38.35094	0.8076577
28.68635	2519.673	62.45358	-38.31369	0.7790858
28.7403	2517.628	62.41783	-38.27664	0.7528458
28.79425	2515.576	62.3802	-38.23986	0.7290666
28.8482	2513.516	62.3429	-38.2034	0.7078247
28.90215	2511.449	62.31189	-38.16731	0.6891557
28.9561	2509.376	62.29313	-38.1317	0.6730554
29.01005	2507.304	62.29018	-38.09665	0.65949
29.064	2505.234	62.30312	-38.06223	0.6483925
29.11795	2503.172	62.32722	-38.02851	0.639697
29.1719	2501.119	62.35929	-37.99555	0.6333418
29.22585	2499.078	62.39643	-37.96341	0.6292778
29.2798	2497.051	62.43411	-37.93215	0.6274797
29.33375	2495.032	62.46758	-37.90186	0.6279374
29.3877	2493.02	62.49458	-37.87263	0.6306593
29.44165	2491.009	62.51534	-37.84455	0.6356444
29.4956	2488.992	62.53401	-37.81768	0.6429062
29.54955	2486.967	62.55801	-37.79206	0.6524358
29.6035	2484.939	62.59558	-37.76768	0.664196
29.65745	2482.915	62.65321	-37.74454	0.6781252
29.7114	2480.896	62.73084	-37.7226	0.6941272
29.76535	2478.885	62.82346	-37.70182	0.7120745
29.8193	2476.877	62.92363	-37.68211	0.7318087
29.87325	2474.871	63.02307	-37.66338	0.7531413
29.9272	2472.868	63.11528	-37.64553	0.7758625
29.98115	2470.873	63.19604	-37.62844	0.7997583
30.0351	2468.891	63.26252	-37.612	0.8246052
30.08905	2466.921	63.31261	-37.59613	0.8501756
30.143	2464.958	63.3456	-37.58076	0.8762391
30.19695	2462.996	63.36143	-37.56588	0.902573
30.2509	2461.027	63.35987	-37.55146	0.9289998
30.30485	2459.045	63.33954	-37.53751	0.9553837
30.3588	2457.048	63.30079	-37.52405	0.981643
30.41275	2455.037	63.24438	-37.5111	1.007724
30.4667	2453.018	63.17022	-37.49872	1.033597
30.52065	2450.995	63.07672	-37.48697	1.059234
30.5746	2448.97	62.96305	-37.47591	1.084617
30.62855	2446.938	62.8297	-37.46563	1.109712
30.6825	2444.893	62.67746	-37.45618	1.134461
30.73645	2442.837	62.50842	-37.44764	1.158768
30.7904	2440.772	62.3231	-37.44007	1.182503
30.84435	2438.702	62.12066	-37.43353	1.205505
30.8983	2436.631	61.90003	-37.42807	1.227582
30.95225	2434.564	61.66569	-37.42374	1.248502
31.0062	2432.501	61.42888	-37.42057	1.268008
31.06015	2430.447	61.19895	-37.41857	1.28583
31.1141	2428.401	60.9838	-37.41771	1.3017
31.16805	2426.36	60.79296	-37.41796	1.315362
31.222	2424.322	60.6325	-37.41926	1.326587
31.27595	2422.286	60.50346	-37.42156	1.335178
31.3299	2420.254	60.40503	-37.42482	1.340979
31.38384	2418.229	60.3288	-37.42898	1.343879
31.4378	2416.208	60.26131	-37.43398	1.343814
31.49174	2414.184	60.18707	-37.43976	1.340748
31.54569	2412.153	60.0965	-37.44623	1.334691
31.59964	2410.114	59.99059	-37.4533	1.325674
31.65359	2408.073	59.87535	-37.46087	1.313757
31.70754	2406.039	59.75661	-37.46882	1.299026
31.76149	2404.019	59.63881	-37.47701	1.281603
31.81544	2402.014	59.52874	-37.48525	1.261633
31.86939	2400.018	59.43337	-37.49337	1.239304
31.92334	2398.028	59.35911	-37.50111	1.214862
31.97729	2396.042	59.3075	-37.50823	1.188603
32.03124	2394.059	59.27429	-37.51445	1.160884
32.08519	2392.08	59.25036	-37.51952	1.132099
32.13914	2390.103	59.22968	-37.52319	1.102656
32.19309	2388.125	59.20907	-37.52524	1.072972
32.24704	2386.143	59.18333	-37.52547	1.043441
32.30099	2384.154	59.14663	-37.52369	1.014441
32.35494	2382.156	59.09394	-37.51973	0.9863433
32.40889	2380.152	59.02322	-37.51347	0.9594882
32.46284	2378.142	58.93272	-37.50481	0.9342029
32.51679	2376.132	58.82038	-37.4937	0.9107681
32.57074	2374.127	58.68459	-37.48014	0.8894203
32.62469	2372.125	58.53024	-37.46415	0.8703321
32.67864	2370.125	58.37353	-37.44579	0.8536134
32.73259	2368.119	58.23241	-37.42515	0.8393241
32.78654	2366.106	58.11967	-37.40236	0.8274767
32.84049	2364.087	58.04159	-37.37757	0.8180327
32.89444	2362.062	57.99921	-37.35098	0.8109066
32.94839	2360.034	57.99493	-37.32278	0.805959
33.00234	2358.005	58.03094	-37.29322	0.8029859
33.05629	2355.977	58.10549	-37.26254	0.8017393
33.11024	2353.95	58.21377	-37.23095	0.8019432
33.16419	2351.921	58.34854	-37.19867	0.8033032
33.21814	2349.887	58.50012	-37.16593	0.8055434
33.27209	2347.847	58.66172	-37.13296	0.8083975
33.32604	2345.797	58.82477	-37.09999	0.8116372
33.37999	2343.736	58.98117	-37.06725	0.8150775
33.43394	2341.666	59.1216	-37.03493	0.8185821
33.48789	2339.588	59.23902	-37.00324	0.8220586
33.54184	2337.501	59.33408	-36.97234	0.8254671
33.59579	2335.402	59.41275	-36.94238	0.8288084
33.64974	2333.293	59.47798	-36.91348	0.8321003
33.70369	2331.184	59.52903	-36.88575	0.8353822
33.75764	2329.079	59.56644	-36.85925	0.8387064
33.81159	2326.981	59.59077	-36.83403	0.8421247
33.86554	2324.894	59.60448	-36.81012	0.8457004
33.91949	2322.819	59.6091	-36.78751	0.8495041
33.97343	2320.762	59.60398	-36.76613	0.8536214
34.02739	2318.728	59.58462	-36.74591	0.8581513
34.08134	2316.72	59.54367	-36.72675	0.8632095
34.13528	2314.736	59.47275	-36.70854	0.8689266
34.18924	2312.769	59.36417	-36.69115	0.8754188
34.24319	2310.815	59.21771	-36.67447	0.8827889
34.29713	2308.868	59.0393	-36.65837	0.891125
34.35109	2306.929	58.83568	-36.64269	0.9005027
34.40503	2304.998	58.61504	-36.62728	0.9109961
34.45898	2303.075	58.38375	-36.61197	0.9226757
34.51294	2301.164	58.1444	-36.59666	0.9355857
34.56688	2299.272	57.89619	-36.5812	0.9497315
34.62083	2297.401	57.64515	-36.5655	0.9650598
34.67479	2295.548	57.40026	-36.54946	0.9814702
34.72873	2293.704	57.17234	-36.53298	0.9988089
34.78268	2291.864	56.97076	-36.51599	1.016869
34.83663	2290.023	56.80065	-36.49846	1.035385
34.89058	2288.176	56.66197	-36.48037	1.054033
34.94453	2286.323	56.55161	-36.46173	1.07245
34.99848	2284.461	56.46036	-36.44263	1.09023
35.05243	2282.591	56.37803	-36.42313	1.106948
35.10638	2280.714	56.29903	-36.40333	1.122176
35.16033	2278.833	56.22554	-36.38334	1.135511
35.21428	2276.952	56.16506	-36.36329	1.146603
35.26823	2275.072	56.12315	-36.34332	1.155152
35.32218	2273.189	56.10015	-36.32361	1.160905
35.37613	2271.302	56.09194	-36.30434	1.163677
35.43008	2269.406	56.09364	-36.28569	1.163347
35.48403	2267.498	56.10294	-36.26784	1.159883
35.53798	2265.569	56.1213	-36.25094	1.15332
35.59193	2263.614	56.14845	-36.23512	1.143768
35.64588	2261.633	56.18353	-36.22045	1.131394
35.69983	2259.63	56.22415	-36.207	1.11642
35.75378	2257.608	56.26488	-36.19477	1.099117
35.80773	2255.567	56.29871	-36.18377	1.079794
35.86168	2253.508	56.3193	-36.17395	1.058791
35.91563	2251.434	56.32151	-36.16523	1.036461
35.96958	2249.353	56.30426	-36.15751	1.013185
36.02353	2247.275	56.27106	-36.15064	0.9893583
36.07748	2245.208	56.22579	-36.14447	0.9653848
36.13143	2243.159	56.1698	-36.13884	0.94169
36.18538	2241.129	56.10504	-36.13359	0.9186913
36.23933	2239.119	56.03536	-36.12855	0.8968072
36.29328	2237.124	55.96401	-36.12357	0.8764433
36.34723	2235.139	55.89312	-36.11849	0.8580126
36.40118	2233.157	55.82654	-36.11315	0.8419155
36.45513	2231.172	55.76445	-36.10741	0.8285245
36.50908	2229.181	55.70417	-36.10111	0.8181651
36.56303	2227.189	55.64241	-36.09414	0.8110969
36.61698	2225.199	55.57624	-36.08638	0.8075052
36.67093	2223.214	55.50177	-36.07771	0.8074917
36.72488	2221.237	55.41766	-36.06801	0.8110773
36.77883	2219.267	55.32751	-36.05718	0.818201
36.83278	2217.307	55.23726	-36.04512	0.8287319
36.88673	2215.361	55.15332	-36.03176	0.842459
36.94068	2213.431	55.07961	-36.01704	0.8590875
36.99463	2211.516	55.01716	-36.00089	0.8782455
37.04858	2209.613	54.96658	-35.98329	0.8995187
37.10253	2207.714	54.93102	-35.96418	0.9224385
37.15648	2205.816	54.91584	-35.94355	0.9465254
37.21043	2203.914	54.92778	-35.92138	0.9713127
37.26437	2202.004	54.96967	-35.89766	0.9963433
37.31833	2200.084	55.03806	-35.87246	1.021189
37.37228	2198.155	55.12296	-35.84583	1.04545
37.42622	2196.218	55.21162	-35.81787	1.068753
37.48018	2194.275	55.2916	-35.78875	1.090758
37.53412	2192.325	55.35163	-35.75863	1.111165
37.58807	2190.372	55.3834	-35.72773	1.129722
37.64202	2188.417	55.38385	-35.69626	1.146238
37.69597	2186.467	55.35518	-35.6645	1.160586
37.74992	2184.525	55.30145	-35.63268	1.172702
37.80387	2182.596	55.22848	-35.60107	1.182554
37.85782	2180.679	55.14304	-35.56987	1.190149
37.91177	2178.775	55.05094	-35.53931	1.195513
37.96572	2176.882	54.95799	-35.50954	1.198725
38.01967	2175.001	54.86863	-35.48069	1.199901
38.07362	2173.132	54.78365	-35.45287	1.199181
38.12757	2171.272	54.70394	-35.42616	1.196739
38.18152	2169.422	54.62952	-35.40061	1.192771
38.23547	2167.576	54.55725	-35.37627	1.187484
38.28942	2165.727	54.48082	-35.3532	1.181122
38.34337	2163.874	54.39426	-35.33142	1.173946
38.39732	2162.013	54.29145	-35.31094	1.166246
38.45127	2160.146	54.16727	-35.2918	1.158329
38.50522	2158.275	54.01685	-35.27403	1.150518
38.55917	2156.402	53.83847	-35.25766	1.143129
38.61312	2154.531	53.63771	-35.24273	1.136479
38.66707	2152.661	53.42226	-35.22924	1.130859
38.72102	2150.792	53.20195	-35.21724	1.126526
38.77497	2148.921	52.98885	-35.20668	1.123701
38.82892	2147.046	52.79439	-35.19755	1.122527
38.88287	2145.163	52.62606	-35.18975	1.123077
38.93682	2143.269	52.4853	-35.1832	1.12534
38.99077	2141.366	52.36853	-35.17775	1.129228
39.04472	2139.454	52.26778	-35.17323	1.134577
39.09867	2137.531	52.17586	-35.16944	1.14115
39.15262	2135.596	52.08646	-35.16615	1.148668
39.20657	2133.65	51.99677	-35.16307	1.156805
39.26052	2131.698	51.90663	-35.15992	1.165225
39.31447	2129.743	51.81607	-35.15638	1.173585
39.36842	2127.791	51.72698	-35.15216	1.181542
39.42237	2125.845	51.64428	-35.14698	1.188755
39.47632	2123.906	51.57336	-35.14059	1.194909
39.53027	2121.979	51.52035	-35.13278	1.199715
39.58422	2120.064	51.4882	-35.1234	1.202936
39.63817	2118.165	51.4795	-35.11233	1.204406
39.69212	2116.284	51.49604	-35.09951	1.204024
39.74607	2114.419	51.53765	-35.08493	1.20174
39.80002	2112.566	51.60007	-35.06859	1.197541
39.85397	2110.722	51.67623	-35.05055	1.191427
39.90792	2108.884	51.75793	-35.03086	1.183393
39.96186	2107.047	51.83825	-35.00959	1.173455
40.01582	2105.207	51.91375	-34.98681	1.161637
40.06977	2103.36	51.98284	-34.96259	1.147981
40.12371	2101.506	52.04527	-34.93702	1.132552
40.17767	2099.644	52.09908	-34.9102	1.11543
40.23162	2097.772	52.14271	-34.88223	1.096716
40.28556	2095.892	52.17404	-34.85325	1.076539
40.33952	2094.003	52.19263	-34.82338	1.055043
40.39346	2092.106	52.20097	-34.79275	1.032393
40.44741	2090.198	52.20231	-34.7615	1.008803
40.50137	2088.28	52.19406	-34.72978	0.9845099
40.55531	2086.353	52.17254	-34.69774	0.9598017
40.60926	2084.417	52.13379	-34.66556	0.9349946
40.66322	2082.47	52.07569	-34.6334	0.9104304
40.71716	2080.516	51.99789	-34.60146	0.886464
40.77111	2078.552	51.90033	-34.5699	0.8634447
40.82506	2076.58	51.78247	-34.53888	0.8417057
40.87901	2074.599	51.64436	-34.50856	0.821566
40.93296	2072.615	51.48701	-34.4791	0.8033291
40.98691	2070.633	51.31204	-34.4506	0.7872721
41.04086	2068.661	51.12223	-34.42318	0.7736241
41.09481	2066.704	50.92387	-34.3969	0.7625464
41.14876	2064.765	50.72349	-34.37178	0.7541389
41.20271	2062.85	50.528	-34.34783	0.748397
41.25666	2060.959	50.34303	-34.32497	0.7452386
41.31061	2059.094	50.17464	-34.3031	0.7444777
41.36456	2057.257	50.02831	-34.28212	0.7458324
41.41851	2055.452	49.90914	-34.26187	0.7489371
41.47246	2053.677	49.81781	-34.24225	0.7533646
41.52641	2051.928	49.75161	-34.2231	0.7586629
41.58036	2050.199	49.70583	-34.2043	0.7643893
41.63431	2048.485	49.67743	-34.18572	0.7701368
41.68826	2046.778	49.66648	-34.16724	0.7755491
41.74221	2045.072	49.67303	-34.14878	0.7803285
41.79616	2043.365	49.69273	-34.13027	0.7842231
41.85011	2041.651	49.71896	-34.11167	0.7870387
41.90406	2039.927	49.74678	-34.09295	0.7886151
41.95801	2038.194	49.77364	-34.07409	0.7888515
42.01196	2036.45	49.79856	-34.05507	0.7876844
42.06591	2034.696	49.82126	-34.03593	0.7850847
42.11986	2032.933	49.84465	-34.01668	0.7810572
42.17381	2031.161	49.87134	-33.99739	0.7756184
42.22776	2029.379	49.90155	-33.97811	0.7688055
42.28171	2027.586	49.93365	-33.95892	0.7606635
42.33566	2025.782	49.96561	-33.93987	0.75126
42.38961	2023.967	49.99658	-33.92104	0.7406855
42.44356	2022.141	50.02782	-33.90246	0.7290661
42.49751	2020.308	50.05767	-33.88416	0.7165789
42.55146	2018.472	50.0814	-33.86615	0.7034604
42.60541	2016.637	50.09416	-33.84842	0.6900049
42.65936	2014.803	50.09092	-33.83092	0.6765446
42.71331	2012.966	50.06864	-33.81361	0.6634401
42.76726	2011.122	50.02808	-33.79642	0.6510702
42.82121	2009.265	49.97208	-33.77929	0.6398122
42.87516	2007.395	49.90411	-33.76217	0.6300449
42.92911	2005.516	49.82928	-33.74499	0.6221331
42.98306	2003.63	49.75107	-33.72767	0.6163964
43.03701	2001.745	49.67139	-33.71012	0.613097
43.09095	1999.866	49.5891	-33.69227	0.6124265
43.14491	1997.999	49.50214	-33.674	0.6145098
43.19886	1996.142	49.41015	-33.6552	0.6194217
43.2528	1994.292	49.31336	-33.63574	0.6271738
43.30676	1992.447	49.21568	-33.61547	0.6377227
