T[Â°C]	330nm [counts / mm]	S.D.
20.00043	3270.681	88.68403
20.05438	3271.331	85.74283
20.10833	3264.284	85.07642
20.16228	3263.055	87.38824
20.21623	3261.007	85.22272
20.27018	3259.792	86.44626
20.32413	3252.806	89.28529
20.37808	3254.226	87.63004
20.43203	3252.265	87.22608
20.48598	3246.742	87.29732
20.53993	3244.513	83.11727
20.59388	3245.866	81.66627
20.64783	3240.043	82.18977
20.70178	3239.506	81.48584
20.75573	3234.652	86.11168
20.80968	3226.623	86.80557
20.86363	3234.286	90.59456
20.91758	3226.911	90.65438
20.97153	3226.104	80.10945
21.02548	3222.5	83.18605
21.07943	3222.234	85.77621
21.13338	3217.87	85.87627
21.18733	3215.603	83.56394
21.24128	3210.971	87.40849
21.29523	3209.68	86.75736
21.34918	3207.545	89.21918
21.40313	3211.82	82.17279
21.45708	3203.482	82.17616
21.51103	3202.347	81.08737
21.56498	3198.558	81.02319
21.61893	3193.352	84.30769
21.67288	3192.899	86.45068
21.72683	3187.81	89.4509
21.78078	3187.653	86.45419
21.83473	3184.813	82.01626
21.88868	3183.97	85.34884
21.94263	3184.263	84.46471
21.99658	3180.015	85.05084
22.05053	3182.523	86.80006
22.10448	3178.103	87.62094
22.15843	3174.662	86.32938
22.21238	3169.365	86.14735
22.26632	3169.508	79.64242
22.32027	3166.9	84.24236
22.37423	3163.624	86.83102
22.42817	3160.342	84.91581
22.48212	3152.423	83.36831
22.53607	3151.575	82.68472
22.59002	3151.453	87.15734
22.64397	3153.495	87.24634
22.69792	3150.256	86.52806
22.75187	3148.119	84.90636
22.80582	3147.651	81.4965
22.85977	3143.061	81.81443
22.91372	3141.819	85.05834
22.96767	3138.582	79.98566
23.02162	3131.184	84.03011
23.07557	3127.723	85.73579
23.12952	3129.709	87.09509
23.18347	3124.534	85.66737
23.23742	3123.219	83.01332
23.29137	3122.2	86.23668
23.34532	3119.591	85.09473
23.39927	3116.529	81.60149
23.45322	3112.687	81.9927
23.50717	3111.631	79.26649
23.56112	3110.64	78.29982
23.61507	3107.659	79.94079
23.66902	3105.649	85.38709
23.72297	3104.563	84.35788
23.77692	3102.908	83.66389
23.83087	3097.574	81.47254
23.88482	3097.195	82.85107
23.93877	3097.466	83.95919
23.99272	3094.68	85.84805
24.04667	3087.632	77.92296
24.10062	3084.065	78.15604
24.15457	3085.123	81.42447
24.20852	3083.2	78.72144
24.26247	3085.33	80.20555
24.31642	3080.935	74.73698
24.37037	3071.531	79.21913
24.42432	3069.886	76.62705
24.47827	3071.962	78.66643
24.53222	3071.664	82.27981
24.58617	3068.884	80.3863
24.64012	3064.832	82.3112
24.69407	3059.556	76.256
24.74802	3060.748	82.29446
24.80197	3061.301	80.25037
24.85592	3056.348	75.97577
24.90987	3052.96	79.35129
24.96382	3052.032	84.19799
25.01777	3048.874	80.98497
25.07172	3044.423	85.2167
25.12567	3041.486	76.44937
25.17962	3042.102	79.47833
25.23357	3041.876	79.9316
25.28752	3036.689	80.83936
25.34146	3036.483	76.59534
25.39541	3032.004	76.755
25.44937	3029.975	81.05294
25.50331	3026.223	80.28495
25.55726	3025.638	76.53217
25.61121	3022.429	78.21195
25.66516	3021.855	81.02654
25.71911	3018.257	82.12344
25.77306	3017.837	84.71014
25.82701	3014.596	84.69205
25.88096	3013.795	79.0379
25.93491	3009.548	83.61303
25.98886	3007.565	73.53918
26.04281	3001.75	76.30309
26.09676	2996.692	79.28497
26.15071	2999.386	76.74004
26.20466	3000.206	70.21127
26.25861	2999.54	76.04
26.31256	2989.75	79.09032
26.36651	2991.14	78.3214
26.42046	2988.4	77.24561
26.47441	2987.941	78.48606
26.52836	2987.893	79.15158
26.58231	2983.052	76.84123
26.63626	2978.585	77.89564
26.69021	2976.722	80.98612
26.74416	2973.201	85.42134
26.79811	2970.206	82.26798
26.85206	2970.134	76.57437
26.90601	2968.756	78.11743
26.95996	2966.116	80.01098
27.01391	2962.613	81.46153
27.06786	2958.626	80.65808
27.12181	2957.202	76.71022
27.17576	2958.831	75.42476
27.22971	2955.026	76.21612
27.28366	2949.867	77.93933
27.33761	2949.276	75.85258
27.39156	2945.837	76.42306
27.44551	2942.584	74.59516
27.49946	2940.388	73.7968
27.55341	2940.644	74.60678
27.60736	2940.509	75.4364
27.66131	2935.755	79.58546
27.71526	2936.308	78.66135
27.76921	2931.837	76.49475
27.82316	2927.384	76.13441
27.87711	2927.364	74.86647
27.93106	2926.732	75.20506
27.98501	2918.24	72.96024
28.03896	2913.073	67.28614
28.09291	2920.04	79.09799
28.14686	2915.053	77.19814
28.20081	2912.971	74.86518
28.25476	2909.368	78.05222
28.3087	2910.189	74.68276
28.36266	2908.571	80.16798
28.4166	2903.27	74.71974
28.47055	2901.137	72.28895
28.5245	2898.117	73.80501
28.57845	2897.761	75.27933
28.6324	2894.553	74.00183
28.68635	2889.911	73.18942
28.7403	2890.001	73.25686
28.79425	2887.904	77.74335
28.8482	2883.827	79.12446
28.90215	2883.906	79.6869
28.9561	2880.578	71.64888
29.01005	2879.869	74.6528
29.064	2878.117	79.32102
29.11795	2872.819	77.21928
29.1719	2878.119	77.30679
29.22585	2871.554	74.15767
29.2798	2866.837	75.78951
29.33375	2867.009	75.12002
29.3877	2864.597	75.30604
29.44165	2861.849	75.00642
29.4956	2858.414	75.15395
29.54955	2855.903	72.32896
29.6035	2854.485	73.15298
29.65745	2852.396	75.06155
29.7114	2851.573	71.06216
29.76535	2851.241	72.73713
29.8193	2846.706	74.92042
29.87325	2845.261	75.43789
29.9272	2839.744	75.38183
29.98115	2841.831	78.28945
30.0351	2841.089	77.18581
30.08905	2838.179	73.95537
30.143	2833.506	76.0852
30.19695	2831.359	72.38395
30.2509	2833.099	80.38343
30.30485	2826.953	77.98353
30.3588	2825.307	74.68324
30.41275	2822.944	73.46937
30.4667	2821.276	75.88397
30.52065	2816.345	75.51495
30.5746	2808.912	72.62931
30.62855	2805.701	71.41206
30.6825	2802.687	74.6536
30.73645	2804.16	76.15551
30.7904	2806.828	73.19678
30.84435	2805.385	74.3211
30.8983	2803.105	76.10104
30.95225	2799.747	72.63014
31.0062	2798.211	71.5639
31.06015	2796.264	74.02475
31.1141	2792.959	74.05524
31.16805	2789.988	72.25569
31.222	2791.189	72.90526
31.27595	2790.135	73.44271
31.3299	2787.45	70.42509
31.38384	2783.362	70.436
31.4378	2783.559	72.58243
31.49174	2778.029	69.0453
31.54569	2775.678	69.82946
31.59964	2773.686	71.56767
31.65359	2771.836	64.39036
31.70754	2769.53	72.60027
31.76149	2768.418	75.28101
31.81544	2769.799	71.2394
31.86939	2766.914	78.20166
31.92334	2764.434	69.93216
31.97729	2760.509	68.84842
32.03124	2756.558	70.09628
32.08519	2759.086	76.01786
32.13914	2751.559	68.9553
32.19309	2750.339	75.15949
32.24704	2750.752	73.49277
32.30099	2746.638	70.44386
32.35494	2742.249	64.56005
32.40889	2739.906	68.2265
32.46284	2738.727	72.46018
32.51679	2735.712	70.40415
32.57074	2737.868	69.59341
32.62469	2734.294	68.47121
32.67864	2731.449	71.47873
32.73259	2729.771	69.93175
32.78654	2724.535	68.12364
32.84049	2723.947	71.19615
32.89444	2725.844	73.15471
32.94839	2721.968	69.27305
33.00234	2714.613	80.11393
33.05629	2712.653	71.07175
33.11024	2712.034	68.87643
33.16419	2710.584	67.17111
33.21814	2709.44	70.32209
33.27209	2708.041	70.84145
33.32604	2703.71	71.54289
33.37999	2705.255	70.35949
33.43394	2697.912	67.58746
33.48789	2700.145	71.67202
33.54184	2698.409	69.97514
33.59579	2692.83	70.30659
33.64974	2697.09	65.97955
33.70369	2691.815	65.93648
33.75764	2688.312	68.69944
33.81159	2688.03	70.36681
33.86554	2680.348	76.81194
33.91949	2679.632	75.38268
33.97343	2677.371	75.66428
34.02739	2676.864	74.90564
34.08134	2672.584	74.4315
34.13528	2670.93	77.09693
34.18924	2670.053	68.9142
34.24319	2668.747	67.71651
34.29713	2665.249	67.86805
34.35109	2664.818	68.6914
34.40503	2659.918	69.91985
34.45898	2660.774	67.88715
34.51294	2659.771	67.50759
34.56688	2653.397	69.7353
34.62083	2651.038	67.98189
34.67479	2650.967	65.22665
34.72873	2649.543	66.73532
34.78268	2646.317	68.11704
34.83663	2646.074	68.65405
34.89058	2643.94	70.97647
34.94453	2642.66	66.8802
34.99848	2637.727	65.31903
35.05243	2633.731	65.87122
35.10638	2634.353	70.25062
35.16033	2635.931	69.80407
35.21428	2633.244	65.61989
35.26823	2631.04	69.93
35.32218	2627.39	68.84917
35.37613	2627.216	67.39568
35.43008	2623.804	64.58926
35.48403	2625.229	69.94308
35.53798	2618.946	64.97353
35.59193	2614.657	71.55998
35.64588	2616.476	65.58828
35.69983	2615.013	64.53093
35.75378	2606.267	66.06771
35.80773	2606.452	66.73575
35.86168	2601.761	69.20188
35.91563	2604.009	65.36062
35.96958	2602.01	70.51387
36.02353	2599.011	75.74722
36.07748	2598.781	72.75498
36.13143	2594.023	70.31985
36.18538	2593.038	73.05499
36.23933	2592.313	67.44064
36.29328	2588.767	68.26844
36.34723	2590.212	62.98953
36.40118	2583.564	71.59495
36.45513	2583.279	66.52147
36.50908	2577.839	71.40489
36.56303	2578.834	66.28724
36.61698	2578.59	66.56417
36.67093	2577.746	68.34853
36.72488	2567.483	67.70708
36.77883	2568.375	67.48332
36.83278	2568.154	70.63081
36.88673	2572.844	69.12804
36.94068	2561.549	69.91176
36.99463	2565.365	70.58302
37.04858	2560.111	64.86301
37.10253	2560.353	67.09279
37.15648	2556.837	69.49351
37.21043	2552.738	68.89001
37.26437	2549.352	67.24446
37.31833	2550.008	64.41056
37.37228	2548.919	62.74699
37.42622	2545.768	66.19129
37.48018	2543.136	70.85912
37.53412	2541.79	72.52213
37.58807	2540.417	70.3037
37.64202	2534.717	67.92907
37.69597	2533.597	63.91364
37.74992	2534.036	64.07977
37.80387	2529.672	64.07736
37.85782	2528.816	61.76079
37.91177	2524.99	65.10635
37.96572	2529.365	70.5294
38.01967	2526.421	66.37496
38.07362	2522.424	65.81345
38.12757	2519.347	67.93704
38.18152	2516.515	64.59319
38.23547	2513.721	64.24792
38.28942	2512.571	64.24184
38.34337	2509.262	62.20615
38.39732	2509.808	63.23673
38.45127	2509.493	65.56009
38.50522	2504.9	63.58519
38.55917	2503.807	60.04863
38.61312	2500.881	60.6727
38.66707	2498.989	62.73882
38.72102	2497.203	63.85839
38.77497	2493.572	64.9183
38.82892	2488.118	67.22926
38.88287	2488.141	67.97759
38.93682	2488.904	65.11265
38.99077	2490.024	64.5361
39.04472	2486.193	65.80037
39.09867	2486.06	64.93534
39.15262	2482.568	68.60876
39.20657	2486.654	66.05248
39.26052	2477.842	62.73972
39.31447	2475.304	59.72838
39.36842	2468.626	62.26874
39.42237	2471.205	59.99156
39.47632	2463.683	58.97633
39.53027	2463.982	57.618
39.58422	2462.694	60.14171
39.63817	2461.082	60.3652
39.69212	2461.848	64.316
39.74607	2460.798	65.66544
39.80002	2453.772	63.61815
39.85397	2455.463	61.11544
39.90792	2453.183	63.22186
39.96186	2453.623	58.49841
40.01582	2446.123	64.67991
40.06977	2443.895	60.4329
40.12371	2444.644	63.38054
40.17767	2443.942	64.86051
40.23162	2437.875	62.73767
40.28556	2442.841	62.51905
40.33952	2437.318	63.75019
40.39346	2440.68	62.15857
40.44741	2430.708	65.85017
40.50137	2431.547	64.61666
40.55531	2425.119	61.55696
40.60926	2427.362	61.68505
40.66322	2429.18	63.99055
40.71716	2427.936	56.65393
40.77111	2423.771	66.93856
40.82506	2421.682	62.46182
40.87901	2414.436	66.17606
40.93296	2414.496	64.70593
40.98691	2412.84	58.84357
41.04086	2409.381	62.90641
41.09481	2410.877	65.0475
41.14876	2409.796	61.83696
41.20271	2405.679	64.52312
41.25666	2404.394	64.73456
41.31061	2401.936	64.3045
41.36456	2401.104	63.86914
41.41851	2396.587	60.48933
41.47246	2396.294	61.8167
41.52641	2395.052	62.01711
41.58036	2393.076	60.49942
41.63431	2392.482	61.38799
41.68826	2391.831	58.73924
41.74221	2389.621	57.3819
41.79616	2387.034	59.9348
41.85011	2385.474	59.93801
41.90406	2381.904	58.49083
41.95801	2376.007	60.35898
42.01196	2375.011	59.84681
42.06591	2375.951	57.79788
42.11986	2373.4	61.48138
42.17381	2373.658	62.3864
42.22776	2370.88	58.32117
42.28171	2367.878	61.51203
42.33566	2365.709	61.35628
42.38961	2366.025	62.23732
42.44356	2363.509	63.60254
42.49751	2363.086	63.79303
42.55146	2355.792	61.08561
42.60541	2357.165	60.55175
42.65936	2355.464	61.84568
42.71331	2358.193	61.43026
42.76726	2349.935	59.29127
42.82121	2348.154	59.82718
42.87516	2340.961	60.51202
42.92911	2339.416	60.35975
42.98306	2342.422	58.7552
43.03701	2346.285	56.8298
43.09095	2339.371	59.42538
43.14491	2335.484	56.76766
43.19886	2332.084	62.34222
43.2528	2333.696	62.3976
43.30676	2327.062	60.78871
43.36071	2328.811	63.62797
43.41465	2324.272	63.43404
43.46861	2329.843	59.91938
43.52255	2323.486	61.34855
43.5765	2324.257	57.98634
43.63046	2317.552	59.8961
43.6844	2319.011	61.79279
43.73835	2318.833	62.04616
43.7923	2320.183	59.82308
43.84625	2313.426	57.05043
43.9002	2314.179	57.00497
43.95415	2309.747	56.31341
44.0081	2309.24	60.19902
44.06205	2303.613	58.90546
44.116	2304.994	52.61122
44.16995	2298.361	59.86139
44.2239	2299.138	61.54992
44.27785	2294.594	67.07482
44.3318	2294.679	60.71593
44.38575	2289.414	64.13888
44.4397	2289.539	63.38164
44.49365	2283.973	64.69543
44.5476	2285.73	58.37768
44.60155	2283.685	61.23392
44.6555	2284.979	56.98707
44.70945	2282.825	57.74438
44.7634	2282.509	57.90322
44.81735	2271.799	57.86443
44.8713	2274.413	56.54948
44.92525	2272.025	61.245
44.9792	2270.268	58.96335
45.03315	2266.716	54.33685
45.0871	2268.815	58.92537
45.14105	2266.802	59.13608
45.195	2265.876	59.67215
45.24895	2261.84	56.64785
45.3029	2260.83	57.66559
45.35685	2258.993	55.69252
45.4108	2258.357	52.37536
45.46475	2255.828	52.14203
45.5187	2253.575	52.60879
45.57265	2253.91	55.0183
45.6266	2250.779	57.44529
45.68055	2249.897	53.43466
45.7345	2249.131	57.0105
45.78845	2246.845	62.18164
45.8424	2243.34	61.25795
45.89635	2247.265	59.69788
45.95029	2239.735	57.36164
46.00425	2236.922	56.62819
46.0582	2234.116	57.74161
46.11214	2236.066	60.36114
46.1661	2233.915	57.00048
46.22005	2232.353	55.13379
46.27399	2227.812	53.39446
46.32795	2231.518	51.42657
46.38189	2223.09	52.76769
46.43584	2223.952	51.61786
46.4898	2217.649	59.45945
46.54374	2221.624	55.37515
46.59769	2215.019	59.70885
46.65165	2217.691	59.26303
46.70559	2213.072	55.66602
46.75954	2212.984	56.24725
46.81349	2214.29	55.50829
46.86744	2211.721	55.05124
46.92139	2205.425	56.62307
46.97534	2205.725	55.59693
47.02929	2197.53	59.904
47.08324	2200.392	58.71723
47.13719	2197.44	55.38673
47.19114	2199.135	51.27948
47.24509	2195.865	53.81054
47.29904	2199.04	55.18745
47.35299	2190.938	55.17139
47.40694	2195.704	56.55107
47.46089	2185.984	56.47818
47.51484	2187.949	61.4961
47.56879	2186.26	57.30988
47.62274	2185.142	55.30396
47.67669	2183.147	58.12756
47.73064	2182.718	53.86494
47.78459	2175.15	56.98412
47.83854	2176.016	52.83531
47.89249	2173.919	59.1061
47.94644	2173.58	57.74897
48.00039	2163.582	58.19225
48.05434	2167.256	55.69349
48.10829	2165.457	61.05944
48.16224	2165.551	55.41026
48.21619	2161.535	50.7567
48.27014	2163.33	50.91679
48.32409	2154.472	53.64985
48.37804	2157.33	55.49586
48.43199	2154.015	53.10332
48.48594	2154.034	55.74293
48.53989	2153.614	55.37698
48.59384	2153.681	56.1966
48.64779	2149.775	55.39994
48.70174	2147.942	54.43742
48.75569	2145.083	54.11767
48.80964	2145.191	54.06615
48.86359	2140.737	57.39789
48.91754	2137.688	55.61599
48.97149	2136.847	52.02401
49.02544	2131.361	52.77013
49.07938	2130.684	52.29007
49.13334	2131.878	54.59086
49.18729	2131.029	53.12618
49.24123	2126.958	49.50543
49.29519	2126.867	51.80781
49.34914	2124.081	54.95024
49.40308	2122.531	56.10118
49.45704	2120.318	53.91473
49.51098	2121.756	52.22499
49.56493	2119.411	51.32781
49.61889	2116.878	54.57632
49.67283	2114.747	59.40657
49.72678	2117.749	57.72872
49.78074	2107.837	54.21044
49.83468	2112.13	55.54314
49.88863	2106.428	53.61372
49.94258	2108.863	51.38055
49.99653	2101.493	52.64594
50.05048	2104.521	50.27344
50.10443	2098.842	53.77296
50.15838	2100.725	51.68435
50.21233	2096.959	52.33004
50.26628	2098.164	49.02943
50.32023	2092.524	52.30049
50.37418	2095.831	50.915
50.42813	2089.534	54.03944
50.48208	2090.568	52.39638
50.53603	2087.351	53.19513
50.58998	2086.974	51.55614
50.64393	2084.71	56.68971
50.69788	2084.472	54.92795
50.75183	2075.33	57.60777
50.80578	2078.156	55.02582
50.85973	2076.183	55.29395
50.91368	2080.508	52.80983
50.96763	2069.273	55.10185
51.02158	2072.107	53.75537
51.07553	2068.041	53.55472
51.12948	2070.199	51.74737
51.18343	2065.597	54.85527
51.23738	2064.317	51.67281
51.29133	2058.315	57.14398
51.34528	2058.214	54.55561
51.39923	2055.535	53.83789
51.45318	2055.496	54.62579
51.50713	2054.59	54.32047
51.56108	2052.723	53.17147
51.61503	2049.338	53.35952
51.66898	2051.16	52.59273
51.72293	2042.858	54.65437
51.77688	2044.163	52.7476
51.83083	2037.643	56.50057
51.88478	2041.542	50.389
51.93872	2038.159	50.07583
51.99268	2042.19	51.51822
52.04663	2035.657	51.11625
52.10057	2036.996	50.48109
52.15453	2032.646	45.65003
52.20848	2033.614	47.23088
52.26242	2029.491	49.78752
52.31638	2029.965	48.52301
52.37032	2028.728	48.8512
52.42427	2027.312	49.99777
52.47823	2025.158	52.42276
52.53217	2024.338	52.50948
52.58612	2022.727	52.36902
52.64007	2021.547	50.89475
52.69402	2020.86	49.95125
52.74797	2019.707	51.99717
52.80192	2016.7	52.29243
52.85587	2014.809	50.6498
52.90982	2014.779	50.35788
52.96377	2008.672	48.85868
53.01772	2010.264	47.05477
53.07167	2006.468	51.09483
53.12562	2009.845	51.28578
53.17957	2002.67	50.19786
53.23352	2003.542	54.47223
53.28747	1996.782	53.7717
53.34142	1997.752	50.84481
53.39537	1991.773	52.08446
53.44932	1992.905	47.95524
53.50327	1993.321	47.58015
53.55722	1994.364	49.32487
53.61117	1991.412	48.19255
53.66512	1993.024	43.9529
53.71907	1985.587	52.98276
53.77302	1985.58	52.31423
53.82697	1981.978	50.83091
53.88092	1982.333	44.9602
53.93487	1979.778	48.23711
53.98882	1981.495	45.44145
54.04277	1973.838	50.84511
54.09672	1978.189	50.3525
54.15067	1970.131	50.2198
54.20462	1971.831	49.2803
54.25857	1966.48	50.85789
54.31252	1969.329	48.08632
54.36647	1962.384	49.5101
54.42042	1964.944	49.78521
54.47437	1961.086	47.26931
54.52832	1964.264	47.55982
54.58227	1957.023	47.29957
54.63622	1960.981	47.40969
54.69017	1955.508	48.55287
54.74412	1958.097	47.83788
54.79807	1947.367	52.56524
54.85202	1948.949	49.98262
54.90597	1944.759	50.21309
54.95992	1945.745	47.73911
55.01387	1943.494	50.86508
55.06781	1947.225	49.6131
55.12177	1941.128	48.57314
55.17572	1939.74	48.09132
55.22966	1935.624	48.17992
55.28362	1936.508	49.08868
55.33757	1934.562	46.47109
55.39151	1933.694	47.54222
55.44547	1931.944	50.53319
55.49941	1929.557	50.11036
55.55336	1929.976	50.22018
55.60732	1928.285	49.44263
55.66126	1933.583	48.10194
55.71521	1926.753	48.16011
55.76917	1929.952	50.77353
55.82311	1921.485	48.8128
55.87706	1923.481	49.95685
55.93101	1920.723	47.0374
55.98496	1919.42	44.61741
56.03891	1914.208	47.21912
56.09286	1916.293	46.4079
56.14681	1910.013	46.90789
56.20076	1912.315	43.68173
56.25471	1905.768	44.85658
56.30866	1907.644	44.68848
56.36261	1901.554	47.04581
56.41656	1904.634	46.00156
56.47051	1901.593	46.62035
56.52446	1903.413	47.36129
56.57841	1895.522	46.48121
56.63236	1899.196	49.85746
56.68631	1892.707	43.81299
56.74026	1896.217	47.75785
56.79421	1894.9	46.05271
56.84816	1896.212	44.95079
56.90211	1889.177	46.35517
56.95606	1885.84	47.98959
57.01001	1882.46	47.19927
57.06396	1887.836	50.14119
57.11791	1880.541	47.931
57.17186	1882.173	44.89367
57.22581	1876.102	48.8277
57.27976	1881.011	46.30087
57.33371	1870.208	46.89693
57.38766	1877.549	43.40465
57.44161	1871.65	46.86501
57.49556	1874.895	46.09512
57.54951	1865.127	45.92278
57.60346	1868.8	46.5177
57.65741	1864.722	45.69714
57.71136	1865.452	46.56703
57.76531	1865.351	47.18599
57.81926	1863.634	45.94635
57.87321	1861.477	48.35471
57.92715	1861.532	47.8052
57.98111	1858.621	45.30583
58.03506	1856.869	46.48101
58.089	1854.213	47.11029
58.14296	1851.26	45.11774
58.1969	1851.602	44.90381
58.25085	1850.135	47.52067
58.30481	1851.755	48.23046
58.35875	1849.817	47.79192
58.4127	1850.032	49.12537
58.46666	1845.008	48.14867
58.5206	1851.035	49.48271
58.57455	1842.412	45.25308
58.6285	1845.507	47.17923
58.68245	1841.107	48.18354
58.7364	1839.485	45.56625
58.79035	1835.595	47.98403
58.8443	1834.014	46.94275
58.89825	1828.553	47.90767
58.9522	1833.551	46.08987
59.00615	1828.057	46.56459
59.0601	1832.93	43.92568
59.11405	1821.7	46.76155
59.168	1824.875	45.99987
59.22195	1821.831	46.33685
59.2759	1825.422	44.48671
59.32985	1816.83	44.85963
59.3838	1819.331	44.02994
59.43775	1815.703	44.62438
59.4917	1818.666	43.08377
59.54565	1811.442	46.03916
59.5996	1817.729	47.32653
59.65355	1809.082	44.83594
59.7075	1813.922	42.15472
59.76145	1806.696	50.18713
59.8154	1807.703	42.55107
59.86935	1800.899	42.37557
59.9233	1805.824	42.81641
59.97725	1798.762	45.30938
60.0312	1801.004	41.79405
60.08515	1795.094	46.41894
60.1391	1796.951	42.88934
60.19305	1791.585	44.55502
60.247	1793.921	44.74542
60.30095	1790.484	48.08643
60.3549	1794.776	45.81522
