T[Â°C]	330nm [counts / mm]	S.D.
20.00049	4991.531	38.92324
20.0546	4997.025	42.67665
20.1087	4986.486	37.03066
20.16281	4980.47	30.25825
20.21692	4978.669	43.33518
20.27102	4972.405	39.72568
20.32513	4973.645	34.84629
20.37924	4964.625	41.99576
20.43335	4960.276	31.79552
20.48745	4957.1	38.06055
20.54156	4954.608	34.41908
20.59567	4947.487	29.69305
20.64977	4952.683	38.17232
20.70388	4938.057	30.08033
20.75799	4941.327	36.50069
20.8121	4931.998	32.54937
20.8662	4923.571	38.7204
20.92031	4920.629	38.17205
20.97442	4918.163	39.51765
21.02852	4912.825	45.42179
21.08263	4915.189	40.4278
21.13674	4912.655	34.94057
21.19084	4907.241	36.70733
21.24495	4900.935	32.07552
21.29906	4897.722	35.40602
21.35316	4893.701	33.71649
21.40727	4891.052	34.11969
21.46138	4891.405	39.49339
21.51549	4880.228	34.08045
21.56959	4875.352	29.90288
21.6237	4881.769	30.48543
21.67781	4881.729	37.10663
21.73191	4866.926	33.10395
21.78602	4866.698	34.31119
21.84013	4861.465	25.99889
21.89424	4856.638	23.98386
21.94834	4857.668	30.02312
22.00245	4845.249	30.90668
22.05656	4851.845	35.74406
22.11066	4842.856	36.00547
22.16477	4835.128	34.46453
22.21888	4834.93	39.73139
22.27298	4835.678	29.55499
22.32709	4824.873	33.71955
22.3812	4834.579	28.03745
22.4353	4820.299	34.81454
22.48941	4816.645	37.24671
22.54352	4806.6	27.93117
22.59763	4807.047	32.00403
22.65173	4800.622	38.72016
22.70584	4799.782	33.65639
22.75995	4800.344	32.5909
22.81405	4794.98	35.19483
22.86816	4792.138	34.55178
22.92227	4777.931	27.84612
22.97638	4779.708	34.64268
23.03048	4776.651	29.98718
23.08459	4771.895	34.22738
23.1387	4768.695	32.32688
23.1928	4770.272	36.52102
23.24691	4767.06	28.3545
23.30102	4762.642	27.08759
23.35512	4762.38	36.91434
23.40923	4758.759	33.02336
23.46334	4752.762	35.46324
23.51744	4747.836	35.31423
23.57155	4746.17	33.67067
23.62566	4739.125	32.30611
23.67977	4740.626	34.52058
23.73387	4733.431	32.42814
23.78798	4722.648	27.62355
23.84209	4725.256	24.89815
23.89619	4717.739	28.08562
23.9503	4718.851	32.30087
24.00441	4718.269	31.88371
24.05852	4711.517	35.44117
24.11262	4710.64	35.6286
24.16673	4710.33	28.15083
24.22084	4705.454	26.77731
24.27494	4697.105	29.7904
24.32905	4693.585	32.88945
24.38316	4688.506	33.14694
24.43726	4681.527	33.75036
24.49137	4677.142	35.32741
24.54548	4674.343	35.02827
24.59958	4673.367	30.92845
24.65369	4672.624	22.06215
24.7078	4666.963	21.73046
24.76191	4659.806	26.44936
24.81601	4659.633	28.8676
24.87012	4655.465	30.40092
24.92423	4649.042	32.06869
24.97833	4649.074	34.07155
25.03244	4645.182	35.34159
25.08655	4641.5	38.17516
25.14066	4638.287	36.08759
25.19476	4633.82	32.53782
25.24887	4630.193	28.2583
25.30298	4628.213	28.82005
25.35708	4624.493	28.97116
25.41119	4617.854	27.15583
25.4653	4616.533	27.58966
25.5194	4615.737	26.66198
25.57351	4606.985	27.42287
25.62762	4603.013	29.16211
25.68172	4603.368	29.18614
25.73583	4605.48	31.98832
25.78994	4600.878	30.80393
25.84405	4592.089	30.06275
25.89815	4587.698	30.23305
25.95226	4581.062	29.95549
26.00637	4583.295	24.68804
26.06047	4580.019	25.42213
26.11458	4567.874	29.91994
26.16869	4564.718	26.00147
26.2228	4560.248	26.73508
26.2769	4571.126	26.82115
26.33101	4562.02	28.62681
26.38512	4562.61	30.66859
26.43922	4553.58	31.78753
26.49333	4545.546	29.46941
26.54744	4542.314	25.72306
26.60155	4538.141	35.81648
26.65565	4537.615	32.96059
26.70976	4532.054	33.77707
26.76386	4531.432	33.68109
26.81797	4525.762	23.13084
26.87208	4521.378	26.71609
26.92619	4522.529	30.49124
26.98029	4518.761	33.88878
27.0344	4511.809	30.22026
27.08851	4512.594	34.44255
27.14261	4504.942	31.04164
27.19672	4498.746	26.60497
27.25083	4502.076	25.25239
27.30494	4495.831	36.55215
27.35904	4495.979	28.77088
27.41315	4489.767	26.56814
27.46726	4487.964	29.86202
27.52136	4484.313	29.89424
27.57547	4483.222	24.92817
27.62958	4479.657	29.72649
27.68369	4472.949	27.79629
27.73779	4464.766	28.05103
27.7919	4459.361	31.23407
27.84601	4456.092	36.86287
27.90011	4457.777	34.48911
27.95422	4450.595	28.74331
28.00833	4445.338	29.16421
28.06243	4447.709	30.58321
28.11654	4444.708	25.72841
28.17065	4437.84	30.16538
28.22475	4435.438	31.52233
28.27886	4432.258	31.46421
28.33297	4424.252	25.88046
28.38708	4422.65	25.87114
28.44118	4422.072	33.02465
28.49529	4420.953	33.03324
28.5494	4417.484	30.11902
28.6035	4410.419	28.43339
28.65761	4410.309	28.37042
28.71172	4410.246	28.47832
28.76583	4402.008	27.55971
28.81993	4396.954	28.18133
28.87404	4396.635	25.74439
28.92815	4393.91	24.80777
28.98225	4392.105	27.31668
29.03636	4387.872	30.8912
29.09047	4381.664	24.14044
29.14457	4377.12	20.05851
29.19868	4375.248	24.50108
29.25279	4374.362	29.11364
29.30689	4369.448	27.11585
29.361	4367.089	25.08669
29.41511	4363.793	30.44999
29.46922	4358.024	32.86657
29.52332	4355.896	29.19874
29.57743	4353.192	27.57889
29.63154	4347.757	28.9323
29.68564	4342.906	29.30541
29.73975	4341.093	23.32795
29.79386	4339.415	27.7555
29.84797	4333.223	30.78525
29.90207	4333.914	32.56622
29.95618	4325.017	25.3229
30.01029	4328.156	29.8147
30.06439	4319.241	30.56671
30.1185	4320.149	26.03428
30.17261	4309.246	24.28973
30.22671	4300.498	29.17475
30.28082	4308.248	35.92141
30.33493	4305.853	35.84798
30.38903	4300.544	32.87314
30.44314	4298.317	26.62086
30.49725	4290.39	28.80291
30.55136	4289.425	26.41615
30.60546	4285.265	28.54618
30.65957	4281.812	31.61978
30.71368	4283.251	22.23662
30.76778	4278.923	22.97341
30.82189	4273.771	26.45908
30.876	4272.242	23.35993
30.93011	4266.042	30.15673
30.98421	4265.561	27.9216
31.03832	4255.661	31.90468
31.09243	4257.888	28.82422
31.14653	4253.527	34.73471
31.20064	4250.986	23.51937
31.25475	4246.004	34.07673
31.30885	4238.819	29.42327
31.36296	4237.364	31.5537
31.41707	4236.092	27.28046
31.47117	4228.546	25.26558
31.52528	4228.096	26.3196
31.57939	4224.589	25.09732
31.6335	4221.74	26.76649
31.6876	4224.983	28.39079
31.74171	4218.268	25.55526
31.79582	4210.229	24.00416
31.84992	4212.337	26.87557
31.90403	4209.163	22.60209
31.95814	4207.668	24.94231
32.01225	4195.997	26.2652
32.06635	4192.851	25.67795
32.12046	4193.993	23.74556
32.17456	4189.946	28.81359
32.22867	4185.366	33.78399
32.28278	4183.711	32.32691
32.33689	4180.064	31.36631
32.391	4178.758	27.11049
32.4451	4172.781	21.92702
32.49921	4168.441	22.48798
32.55331	4169.369	26.0959
32.60742	4163.529	26.69827
32.66153	4160.58	24.75181
32.71564	4158.1	26.77923
32.76974	4154.952	27.74702
32.82385	4152.87	28.7594
32.87796	4150.059	31.43064
32.93206	4142.099	20.20114
32.98617	4139.314	24.27353
33.04028	4138.817	22.58545
33.09438	4133.112	24.83464
33.14849	4127.622	22.20151
33.2026	4126.774	24.60322
33.25671	4123.374	30.14649
33.31081	4121.518	35.24979
33.36492	4114.187	28.71985
33.41903	4115.374	22.69973
33.47313	4106.679	20.8432
33.52724	4112.69	30.29139
33.58135	4101.01	28.04817
33.63546	4104.263	27.66929
33.68956	4094.482	25.78072
33.74367	4094.482	24.68198
33.79778	4092.532	30.19285
33.85188	4092.229	21.19222
33.90599	4086.29	29.40444
33.9601	4082.042	21.96877
34.0142	4075.541	30.64158
34.06831	4074.948	20.24732
34.12242	4072.11	25.71062
34.17653	4068.111	25.9673
34.23063	4066.933	22.43052
34.28474	4064.524	20.89037
34.33884	4056.347	21.09179
34.39295	4059.98	23.50197
34.44706	4051.602	29.19657
34.50117	4047.245	30.85181
34.55527	4047.707	32.29786
34.60938	4043.478	23.16615
34.66349	4034.177	32.98085
34.71759	4032.902	25.39406
34.7717	4029.91	36.86573
34.82581	4029.188	30.1904
34.87992	4024.645	36.13067
34.93402	4023.732	31.98392
34.98813	4017.714	32.0076
35.04224	4012.405	29.89729
35.09634	4013.658	25.96501
35.15045	4011.539	26.12042
35.20456	4012.771	23.18292
35.25866	4005.529	18.08843
35.31277	3995.682	22.02948
35.36688	3998.818	26.69724
35.42099	3994.065	27.45315
35.47509	3994.758	22.82536
35.5292	3990.064	23.67485
35.58331	3983.638	27.87966
35.63741	3978.471	30.80355
35.69152	3975.844	32.5178
35.74563	3969.85	24.32674
35.79974	3969.289	22.48077
35.85384	3967.343	30.77269
35.90795	3964.369	29.38155
35.96206	3959.257	24.85768
36.01616	3955.326	21.43369
36.07027	3953.643	20.50498
36.12438	3954.095	25.47671
36.17848	3953.426	21.64058
36.23259	3945.352	21.39527
36.2867	3941.395	24.46068
36.34081	3937.847	23.2614
36.39491	3932.203	23.40507
36.44902	3929.018	24.16875
36.50312	3927.595	25.51642
36.55723	3927.797	27.34014
36.61134	3925.394	26.60645
36.66545	3920.299	20.78704
36.71955	3915.582	25.18605
36.77366	3916.44	26.2868
36.82777	3915.913	27.59749
36.88187	3909.51	29.34646
36.93598	3908.508	27.74915
36.99009	3899.866	29.38777
37.0442	3894.073	30.50017
37.0983	3894.659	33.30053
37.15241	3887.157	23.9798
37.20652	3884.113	25.74237
37.26062	3883.828	22.04198
37.31473	3884.99	26.50829
37.36884	3883.547	25.33905
37.42294	3875.302	26.21005
37.47705	3875.103	28.70681
37.53116	3869.699	20.28448
37.58527	3863.384	24.44146
37.63937	3859.547	28.46518
37.69348	3860.733	20.79085
37.74759	3853.248	21.78038
37.80169	3856.569	24.81931
37.8558	3850.926	24.76568
37.90991	3851.859	24.85461
37.96402	3845.21	34.3415
38.01812	3848.425	24.07499
38.07223	3840.199	25.46843
38.12634	3833.865	26.25066
38.18044	3834.243	28.47593
38.23455	3829.782	32.4875
38.28866	3826.837	32.299
38.34276	3824.202	28.81912
38.39687	3820.538	27.93303
38.45098	3817.32	28.71566
38.50508	3808.824	18.732
38.55919	3807.039	24.02093
38.6133	3809.115	23.72344
38.6674	3805.588	24.56041
38.72151	3797.697	25.83435
38.77562	3799.049	25.40547
38.82973	3790.438	20.70538
38.88383	3792.872	22.72682
38.93794	3789.421	24.72406
38.99205	3787.528	24.71063
39.04615	3779.746	27.21197
39.10026	3778.718	26.91909
39.15437	3776.723	15.06966
39.20848	3776.271	20.62617
39.26258	3768.15	14.22668
39.31669	3768.31	15.62361
39.3708	3768.878	27.42102
39.4249	3766.078	22.62868
39.47901	3757.951	17.68109
39.53312	3752.72	20.51052
39.58722	3752.326	19.88881
39.64133	3751.162	26.11757
39.69544	3747.493	30.40259
39.74955	3743.428	26.09091
39.80365	3735.782	24.09335
39.85776	3736.5	24.72646
39.91187	3737.183	23.55837
39.96597	3734.141	23.98456
40.02008	3730.95	25.94806
40.07419	3727.215	25.02305
40.1283	3724.638	23.86494
40.1824	3719.096	24.20579
40.23651	3714.904	22.19566
40.29062	3713.753	19.4204
40.34472	3710.427	20.75558
40.39883	3708.343	24.4459
40.45294	3706.239	18.76923
40.50705	3703.358	28.86078
40.56115	3701.758	27.2732
40.61526	3698.487	24.99795
40.66936	3698.165	21.37907
40.72347	3691.319	21.81717
40.77758	3687.458	24.5851
40.83168	3685.836	31.44539
40.88579	3687.195	33.05197
40.9399	3678.08	26.4545
40.99401	3679.449	26.21185
41.04811	3672.813	30.52557
41.10222	3671.65	27.06939
41.15633	3659.908	24.66581
41.21043	3661.552	27.88177
41.26454	3657.526	20.46748
41.31865	3658.221	25.04732
41.37276	3655.818	27.79503
41.42686	3652.511	25.23623
41.48097	3650.024	26.37841
41.53508	3647.07	26.19094
41.58918	3646.236	26.5697
41.64329	3643.708	26.70583
41.6974	3637.955	28.06978
41.75151	3635.318	26.25099
41.80561	3626.039	27.97523
41.85972	3627.191	26.15734
41.91383	3622.65	29.10137
41.96793	3619.618	32.16589
42.02204	3613.004	30.13541
42.07615	3610.924	23.93928
42.13025	3609.151	21.14607
42.18436	3607.993	20.97054
42.23847	3607.285	21.00333
42.29258	3608.076	23.658
42.34668	3603.05	24.65181
42.40079	3599.725	25.43041
42.4549	3593.02	26.78745
42.509	3592.839	21.92654
42.56311	3588.851	19.71555
42.61722	3584.291	22.94862
42.67133	3582.836	20.98626
42.72543	3578.993	22.08185
42.77954	3576.215	26.17517
42.83364	3572.5	21.88558
42.88775	3568.738	20.25062
42.94186	3567.089	21.92968
42.99596	3562.541	21.09424
43.05007	3559.473	22.88898
43.10418	3561.076	24.50209
43.15829	3559.656	24.13191
43.21239	3557.943	24.32928
43.2665	3556.207	26.00775
43.32061	3551.551	22.73993
43.37471	3546.458	16.91356
43.42882	3544.716	20.58463
43.48293	3537.736	20.68537
43.53704	3532.715	17.34658
43.59114	3535.14	18.35551
43.64525	3533.349	29.0169
43.69936	3525.494	22.28663
43.75346	3523.472	25.63813
43.80757	3518.98	21.17392
43.86168	3517.822	16.56217
43.91579	3510.72	23.93842
43.96989	3514.836	21.25907
44.024	3512.522	22.98365
44.07811	3509.516	26.01917
44.13221	3505.806	27.09469
44.18632	3499.764	22.80881
44.24043	3502.282	23.52882
44.29453	3493.363	22.64328
44.34864	3494.425	19.7377
44.40275	3491.673	21.89354
44.45686	3487.575	21.55648
44.51096	3484.271	22.7894
44.56507	3477.268	22.63935
44.61917	3478.797	20.60824
44.67328	3474.553	20.4865
44.72739	3474.863	23.34257
44.7815	3471.602	26.79696
44.83561	3465.984	23.84363
44.88971	3467.911	30.99948
44.94382	3464.617	31.88943
44.99792	3457.271	23.55751
45.05203	3459.763	18.50519
45.10614	3456.85	22.47746
45.16025	3453.492	18.78009
45.21435	3448.367	21.80229
45.26846	3443.523	24.9367
45.32257	3440.868	23.55768
45.37667	3436.908	28.48956
45.43078	3431.147	27.55361
45.48489	3431.713	26.86551
45.53899	3427.438	24.79201
45.5931	3427.846	20.71389
45.64721	3421.129	22.09554
45.70132	3419.843	12.97708
45.75542	3415.408	18.54848
45.80953	3418.785	17.64747
45.86364	3414.018	18.29367
45.91774	3407.893	20.90974
45.97185	3406.333	20.97914
46.02596	3407.077	26.63994
46.08007	3402.313	30.68825
46.13417	3404.164	22.41562
46.18828	3394.452	34.41306
46.24239	3397.489	25.28454
46.29649	3386.215	17.09081
46.3506	3387.192	17.10666
46.40471	3385.147	21.4791
46.45881	3383.665	17.99147
46.51292	3375.035	15.65027
46.56703	3375.046	15.23664
46.62114	3371.78	19.57207
46.67524	3372.122	20.55642
46.72935	3370.93	17.66354
46.78345	3369.109	20.91445
46.83756	3359.947	20.467
46.89167	3360.981	25.12784
46.94578	3359.481	25.05305
46.99989	3354.543	18.84442
47.05399	3350.323	19.35724
47.1081	3350.527	18.84726
47.1622	3346.133	22.24583
47.21631	3344.885	24.33114
47.27042	3340.471	21.52722
47.32453	3337	20.18251
47.37863	3334.057	22.90906
47.43274	3334.622	22.9185
47.48685	3331.873	20.1237
47.54095	3328.461	18.23901
47.59506	3321.339	17.88913
47.64917	3317.037	20.19107
47.70327	3316.497	20.422
47.75738	3314.315	19.0619
47.81149	3314.779	18.24601
47.8656	3312.168	20.1375
47.9197	3309.098	22.14996
47.97381	3307.579	17.84488
48.02792	3304.583	16.69087
48.08202	3301.873	19.48942
48.13613	3298.958	23.39029
48.19024	3291.854	21.94124
48.24435	3291.012	22.3305
48.29845	3284.857	21.83274
48.35256	3281.049	21.53654
48.40667	3279.275	18.31114
48.46077	3278.812	19.30757
48.51488	3281.908	14.68092
48.56899	3278.269	18.73163
48.62309	3274.917	17.91324
48.6772	3273.676	18.78274
48.73131	3269.631	15.9458
48.78542	3266.003	19.76714
48.83952	3262.119	18.43941
48.89363	3259.11	14.58264
48.94773	3257.357	20.3055
49.00184	3258.142	21.72862
49.05595	3252.743	19.99084
49.11006	3252.726	18.29967
49.16417	3244.146	24.18789
49.21827	3248.161	21.92548
49.27238	3241.024	19.69069
49.32648	3239.186	23.83848
49.38059	3236.599	18.54181
49.4347	3233.611	19.04368
49.48881	3228.505	19.85187
49.54291	3232.035	17.30898
49.59702	3223.857	18.96297
49.65113	3225.77	21.89442
49.70523	3217.677	22.24298
49.75934	3218.066	21.07864
49.81345	3212.54	22.6982
49.86755	3214.722	26.48316
49.92166	3208.231	19.42408
49.97577	3210.063	20.63111
50.02988	3201.248	17.87519
50.08398	3200.206	20.7979
50.13809	3190.686	20.9677
50.1922	3195.679	17.3471
50.2463	3191.265	14.68152
50.30041	3191.881	14.06157
50.35452	3189.304	17.55415
50.40863	3185.044	18.36406
50.46273	3174.929	22.68402
50.51684	3179.79	21.63832
50.57095	3172.674	25.91125
50.62505	3172.979	16.79236
50.67916	3171.907	18.53296
50.73327	3169.527	20.61049
50.78737	3165.585	19.26853
50.84148	3162.24	17.5985
50.89559	3159.572	19.84714
50.9497	3158.997	23.23731
51.0038	3149.084	18.16563
51.05791	3152.674	24.26811
51.11201	3149.914	22.85973
51.16612	3151.956	25.0791
51.22023	3141.406	20.595
51.27434	3140.476	17.69366
51.32845	3135.724	16.48534
51.38255	3134.271	16.74984
51.43666	3134.852	20.32588
51.49076	3133.28	21.10793
51.54487	3125.216	22.26101
51.59898	3127.305	17.04001
51.65309	3124.139	18.06032
51.70719	3121.413	18.22178
51.7613	3120.245	16.71029
51.81541	3119.257	18.37175
51.86951	3111.525	18.89555
51.92362	3110.464	20.63372
51.97773	3108.851	21.54004
52.03183	3104.605	20.10796
52.08594	3103.094	20.75534
52.14005	3101.422	20.9329
52.19416	3097.961	20.10894
52.24826	3097.399	19.42214
52.30237	3094.731	19.60661
52.35648	3087.358	21.86361
52.41058	3089.388	21.66812
52.46469	3086.438	20.2269
52.5188	3083.579	22.35643
52.57291	3077.068	26.32397
52.62701	3074.938	27.39144
52.68112	3072.162	22.0269
52.73523	3070.05	26.77582
52.78933	3068.036	24.05447
52.84344	3070.697	17.73403
52.89755	3066.334	17.39614
52.95165	3063.555	22.92456
53.00576	3056.194	17.10155
53.05987	3054.405	20.28396
53.11398	3048.303	20.253
53.16808	3054.908	21.99698
53.22219	3045.637	16.08443
53.27629	3050.885	15.84837
53.3304	3040.791	15.52424
53.38451	3041.432	21.64865
53.43862	3040.289	17.60383
53.49273	3036.224	19.60572
53.54683	3032.884	17.30404
53.60094	3032.808	16.0953
53.65504	3021.816	17.99079
53.70915	3027.19	18.13534
53.76326	3022.587	15.02424
53.81737	3020.056	15.02754
53.87147	3017.273	11.9695
53.92558	3014.791	9.535789
53.97969	3009.679	13.19512
54.03379	3008.463	17.48025
54.0879	3008.095	15.59951
54.14201	3004.425	15.66357
54.19611	3000.584	20.66603
54.25022	2999.892	21.37848
54.30433	2998.934	21.17814
54.35844	2994.067	20.55848
54.41254	2993.152	16.16607
54.46665	2988.096	16.92435
54.52076	2990.29	18.25736
54.57486	2987.359	18.84254
54.62897	2986.124	17.14747
54.68308	2981.812	18.9239
54.73719	2982.888	22.22721
54.79129	2975.257	20.62312
54.8454	2980.977	15.7929
54.89951	2969.772	20.47054
54.95361	2969.82	18.92953
55.00772	2960.238	17.87028
55.06183	2956.063	14.59154
55.11593	2958.787	15.46967
55.17004	2958.298	15.344
55.22415	2950.115	17.90497
55.27826	2953.566	15.40589
55.33236	2950.871	18.62915
55.38647	2953.583	17.58661
55.44057	2944.725	21.33977
55.49468	2943.562	23.74399
55.54879	2942.288	23.31462
55.6029	2942.561	17.46021
55.65701	2935.498	16.68308
55.71111	2936.583	17.00455
55.76522	2935.072	15.33769
55.81932	2933.516	20.13767
55.87343	2927.645	20.85308
55.92754	2932.223	19.74573
55.98165	2919.098	16.34365
56.03576	2918.854	20.10438
56.08986	2915.579	17.94691
56.14397	2911.844	17.56518
56.19807	2911.196	23.01787
56.25218	2912.717	21.67535
56.30629	2903.385	20.27389
56.36039	2901.441	17.34517
56.4145	2901.012	15.47995
56.46861	2898.097	16.50468
56.52272	2896.761	17.21022
56.57682	2893.019	19.97745
56.63093	2892.155	19.52933
56.68504	2889.65	15.15836
56.73914	2887.917	16.17092
56.79325	2882.487	15.79733
56.84736	2885.825	19.58682
56.90147	2884.502	14.2394
56.95557	2879.527	17.34502
57.00968	2876.073	19.13882
57.06379	2877.358	21.80143
57.11789	2871.332	20.17556
57.172	2867.635	20.61741
57.22611	2861.021	17.39215
57.28022	2858.672	17.53184
57.33432	2857.459	18.73549
57.38843	2862.759	16.38546
57.44254	2854.106	18.75144
57.49664	2855.485	13.72065
57.55075	2848.359	12.49767
57.60485	2852.193	14.17068
57.65896	2844.823	14.27114
57.71307	2849.318	15.94302
57.76718	2842.176	15.18878
57.82129	2842.119	21.66651
57.87539	2835.697	11.98829
57.9295	2834.699	17.73749
57.9836	2830.298	16.05658
58.03771	2829.915	17.01248
58.09182	2823.989	16.56448
58.14593	2824.785	20.16458
58.20004	2821.169	15.43537
58.25414	2822.136	15.89258
58.30825	2814.083	16.89616
58.36235	2817.717	18.96311
58.41646	2815.11	17.65064
58.47057	2814.253	15.6945
58.52468	2808.006	13.99749
58.57878	2809.16	12.92942
58.63289	2804.925	13.4254
58.687	2803.715	15.8479
58.7411	2798.957	22.90184
58.79521	2794.966	23.85801
58.84932	2794.653	21.04602
58.90342	2792.154	18.90235
58.95753	2787.625	17.80598
59.01164	2785.405	17.1879
59.06575	2787.077	19.59895
59.11985	2787.11	19.45496
59.17396	2782.829	15.27634
59.22807	2781.071	14.50352
59.28217	2779.822	13.33021
59.33628	2773.932	13.86524
59.39039	2769.235	14.64396
59.4445	2766.67	14.38939
59.4986	2767.969	14.76162
59.55271	2767.946	15.90838
59.60682	2766.493	16.32845
59.66092	2759.26	14.68301
59.71503	2759.856	14.25363
59.76914	2755.006	17.49955
59.82324	2755.937	22.02513
59.87735	2749.548	19.67354
59.93146	2750.393	18.40973
59.98557	2744.993	18.83976
60.03967	2741.544	17.80547
60.09378	2738.665	17.45521
60.14788	2742.869	17.80206
60.20199	2736.306	15.55303
60.2561	2739.193	19.50204
60.31021	2732.189	15.76337
60.36432	2734.381	15.0654
60.41842	2727.273	18.46353
