T[Â°C]	330nm [counts / mm]	S.D.	First derivative	S.D. of first derivative
20.00049	4994.389	37.82923	-72.46619	4.497146
20.0546	4990.3	37.70131	-72.38055	4.424632
20.1087	4986.215	37.57791	-72.29491	4.35233
20.16281	4982.134	37.45858	-72.20933	4.280251
20.21692	4978.057	37.34304	-72.12378	4.208415
20.27102	4973.983	37.23074	-72.03827	4.136829
20.32513	4969.915	37.12173	-71.95281	4.065516
20.37924	4965.851	37.01509	-71.86742	3.994484
20.43335	4961.792	36.90948	-71.7821	3.923754
20.48745	4957.738	36.8036	-71.69685	3.853344
20.54156	4953.689	36.69587	-71.61169	3.783266
20.59567	4949.646	36.58526	-71.52663	3.713536
20.64977	4945.608	36.47019	-71.44167	3.644175
20.70388	4941.576	36.34993	-71.3568	3.5752
20.75799	4937.548	36.22451	-71.27206	3.506613
20.8121	4933.523	36.09525	-71.18742	3.438439
20.8662	4929.5	35.96781	-71.10291	3.37069
20.92031	4925.482	35.85662	-71.01852	3.30337
20.97442	4921.598	35.72433	-70.93425	3.236503
21.02852	4917.742	35.58481	-70.85011	3.170085
21.08263	4913.909	35.43187	-70.76607	3.104124
21.13674	4910.096	35.26553	-70.68215	3.03863
21.19084	4906.306	35.08942	-70.59834	2.973604
21.24495	4902.539	34.90345	-70.51462	2.909046
21.29906	4898.79	34.70907	-70.43098	2.844955
21.35316	4895.056	34.51067	-70.34743	2.781328
21.40727	4891.339	34.30652	-70.26395	2.718167
21.46138	4887.641	34.09674	-70.18053	2.655468
21.51549	4883.967	33.87743	-70.09717	2.59323
21.56959	4880.315	33.65096	-70.01384	2.531443
21.6237	4876.678	33.42409	-69.93056	2.470105
21.67781	4873.041	33.20123	-69.8473	2.409218
21.73191	4869.39	32.99171	-69.76408	2.34876
21.78602	4865.71	32.80653	-69.68089	2.288725
21.84013	4861.996	32.65678	-69.59774	2.22909
21.89424	4858.254	32.54415	-69.51463	2.169834
21.94834	4854.492	32.46901	-69.43156	2.110917
22.00245	4850.717	32.42688	-69.34855	2.052298
22.05656	4846.928	32.40746	-69.26562	1.993915
22.11066	4843.12	32.40376	-69.18276	1.935707
22.16477	4839.289	32.41307	-69.10001	1.877582
22.21888	4835.432	32.43521	-69.01736	1.819442
22.27298	4831.556	32.47132	-68.93484	1.761185
22.32709	4827.669	32.52093	-68.85246	1.702709
22.3812	4823.784	32.57934	-68.77024	1.643926
22.4353	4819.913	32.63638	-68.68827	1.584794
22.48941	4816.067	32.68679	-68.6067	1.525379
22.54352	4812.259	32.7295	-68.52583	1.465882
22.59763	4808.493	32.76611	-68.44607	1.406657
22.65173	4804.766	32.79669	-68.38829	1.367311
22.70584	4801.068	32.81699	-68.33305	1.329141
22.75995	4797.397	32.82397	-68.28016	1.292278
22.81405	4793.752	32.81954	-68.22943	1.256891
22.86816	4790.128	32.81036	-68.18064	1.223173
22.92227	4786.517	32.7972	-68.13354	1.191323
22.97638	4782.909	32.77441	-68.08784	1.161547
23.03048	4779.301	32.73518	-68.04324	1.134017
23.08459	4775.691	32.67528	-67.99945	1.108864
23.1387	4772.086	32.59493	-67.95617	1.086187
23.1928	4768.497	32.49916	-67.91313	1.06605
23.24691	4764.931	32.39293	-67.87007	1.0485
23.30102	4761.395	32.28105	-67.82679	1.033562
23.35512	4757.892	32.16675	-67.78307	1.021248
23.40923	4754.414	32.0552	-67.73876	1.011561
23.46334	4750.953	31.94937	-67.69377	1.004496
23.51744	4747.502	31.85358	-67.64805	0.9999985
23.57155	4744.049	31.77597	-67.60159	0.9980095
23.62566	4740.583	31.7198	-67.55442	0.9983995
23.67977	4737.089	31.68264	-67.50665	1.001003
23.73387	4733.556	31.65806	-67.45842	1.005592
23.78798	4729.973	31.6305	-67.40991	1.011925
23.84209	4726.335	31.58072	-67.36134	1.019732
23.89619	4722.645	31.49732	-67.31296	1.028732
23.9503	4718.913	31.38109	-67.26503	1.038636
24.00441	4715.153	31.23811	-67.21786	1.049115
24.05852	4711.377	31.07841	-67.17173	1.059848
24.11262	4707.6	30.91531	-67.12695	1.070504
24.16673	4703.833	30.76247	-67.08377	1.080752
24.22084	4700.085	30.63519	-67.04242	1.09029
24.27494	4696.358	30.55126	-67.00303	1.098807
24.32905	4692.649	30.52054	-66.96571	1.106024
24.38316	4688.954	30.53831	-66.93049	1.111682
24.43726	4685.264	30.59395	-66.89735	1.115532
24.49137	4681.576	30.67176	-66.86626	1.117326
24.54548	4677.884	30.75205	-66.83707	1.116844
24.59958	4674.183	30.81608	-66.80965	1.113905
24.65369	4670.475	30.84662	-66.78375	1.108364
24.7078	4666.758	30.83159	-66.75915	1.100107
24.76191	4663.037	30.7712	-66.7356	1.08908
24.81601	4659.321	30.67678	-66.71284	1.075228
24.87012	4655.628	30.56524	-66.69064	1.058545
24.92423	4651.975	30.45109	-66.66868	1.039046
24.97833	4648.369	30.34332	-66.64674	1.0168
25.03244	4644.808	30.24836	-66.62453	0.9919041
25.08655	4641.286	30.16845	-66.60186	0.9645139
25.14066	4637.793	30.10191	-66.57847	0.9347991
25.19476	4634.316	30.0484	-66.55418	0.9029616
25.24887	4630.839	30.00735	-66.52881	0.8692288
25.30298	4627.345	29.97122	-66.50219	0.833872
25.35708	4623.824	29.92939	-66.47421	0.7972345
25.41119	4620.279	29.86762	-66.44476	0.7597331
25.4653	4616.721	29.77286	-66.41373	0.7218798
25.5194	4613.163	29.6341	-66.38106	0.684238
25.57351	4609.614	29.45062	-66.34667	0.6474434
25.62762	4606.071	29.23127	-66.31052	0.6122183
25.68172	4602.528	28.99629	-66.27261	0.5793813
25.73583	4598.98	28.77255	-66.23297	0.5498829
25.78994	4595.426	28.58361	-66.19171	0.5247121
25.84405	4591.861	28.44817	-66.14896	0.5048317
25.89815	4588.285	28.37673	-66.10489	0.4910007
25.95226	4584.696	28.36477	-66.05968	0.4836771
26.00637	4581.093	28.39822	-66.01353	0.4829143
26.06047	4577.479	28.46122	-65.96661	0.4883533
26.11458	4573.855	28.53901	-65.91905	0.4992797
26.16869	4570.225	28.62013	-65.87096	0.5147429
26.2228	4566.592	28.69803	-65.82233	0.5337024
26.2769	4562.96	28.77048	-65.77319	0.5551187
26.33101	4559.331	28.83303	-65.72352	0.5780349
26.38512	4555.709	28.88449	-65.67329	0.601617
26.43922	4552.1	28.93289	-65.6225	0.6251707
26.49333	4548.508	28.98567	-65.57109	0.6481715
26.54744	4544.938	29.04687	-65.51904	0.6702463
26.60155	4541.394	29.11843	-65.46629	0.6911615
26.65565	4537.881	29.20024	-65.41275	0.7108215
26.70976	4534.398	29.28601	-65.35835	0.7292336
26.76386	4530.939	29.36831	-65.30301	0.746486
26.81797	4527.497	29.43852	-65.24668	0.7627105
26.87208	4524.061	29.48848	-65.1894	0.7780717
26.92619	4520.621	29.51674	-65.13121	0.7927034
26.98029	4517.168	29.5294	-65.07224	0.8067404
27.0344	4513.696	29.53722	-65.0126	0.8202711
27.08851	4510.204	29.54512	-64.95248	0.8333814
27.14261	4506.695	29.55315	-64.89207	0.8461017
27.19672	4503.181	29.55969	-64.83156	0.8584194
27.25083	4499.667	29.56144	-64.77116	0.8702605
27.30494	4496.151	29.55878	-64.71105	0.8814899
27.35904	4492.627	29.55516	-64.65141	0.891897
27.41315	4489.091	29.55295	-64.5924	0.9011926
27.46726	4485.54	29.55065	-64.53417	0.9090481
27.52136	4481.973	29.54737	-64.47684	0.9151017
27.57547	4478.396	29.54494	-64.42048	0.9190093
27.62958	4474.813	29.54289	-64.36518	0.9204428
27.68369	4471.229	29.54085	-64.311	0.9191015
27.73779	4467.648	29.53787	-64.25802	0.9147087
27.7919	4464.068	29.53614	-64.20628	0.9070231
27.84601	4460.497	29.54258	-64.15584	0.895867
27.90011	4456.934	29.56	-64.10674	0.8811417
27.95422	4453.379	29.58403	-64.05901	0.8628452
28.00833	4449.832	29.60431	-64.0127	0.8410925
28.06243	4446.296	29.61083	-63.96784	0.8160848
28.11654	4442.777	29.59629	-63.92444	0.7881438
28.17065	4439.287	29.55851	-63.88249	0.7576589
28.22475	4435.829	29.49558	-63.84193	0.7250794
28.27886	4432.406	29.40207	-63.8027	0.690886
28.33297	4429.016	29.26861	-63.76468	0.6555911
28.38708	4425.657	29.09846	-63.72774	0.6197588
28.44118	4422.328	28.89962	-63.69171	0.5839743
28.49529	4419.026	28.68211	-63.65639	0.5488961
28.5494	4415.746	28.45965	-63.62155	0.5152267
28.6035	4412.475	28.24993	-63.58697	0.4837593
28.65761	4409.204	28.06513	-63.5524	0.4553756
28.71172	4405.928	27.91297	-63.51766	0.4310296
28.76583	4402.647	27.7958	-63.48257	0.4116623
28.81993	4399.358	27.70862	-63.44701	0.3980316
28.87404	4396.061	27.63709	-63.41088	0.3905684
28.92815	4392.752	27.57252	-63.37415	0.3892465
28.98225	4389.434	27.51344	-63.33677	0.3935505
29.03636	4386.104	27.46378	-63.29878	0.402593
29.09047	4382.76	27.42417	-63.26024	0.4152544
29.14457	4379.397	27.39683	-63.22126	0.4303487
29.19868	4376.016	27.3831	-63.18198	0.446751
29.25279	4372.618	27.38144	-63.14259	0.4634975
29.30689	4369.202	27.39147	-63.10327	0.4798131
29.361	4365.765	27.41849	-63.06424	0.4951185
29.41511	4362.31	27.47268	-63.0257	0.5090275
29.46922	4358.838	27.56064	-62.98781	0.521312
29.52332	4355.355	27.68376	-62.95069	0.5318897
29.57743	4351.866	27.83711	-62.91443	0.5408101
29.63154	4348.373	28.01188	-62.87909	0.5482065
29.68564	4344.877	28.19468	-62.8447	0.5542579
29.73975	4341.376	28.37313	-62.81123	0.5591765
29.79386	4337.876	28.53754	-62.77867	0.563179
29.84797	4334.381	28.67609	-62.74695	0.5664635
29.90207	4330.898	28.77897	-62.71603	0.5691746
29.95618	4327.428	28.83923	-62.68583	0.5713959
30.01029	4323.972	28.85143	-62.65633	0.5731546
30.06439	4320.529	28.81833	-62.62748	0.5744475
30.1185	4317.104	28.75176	-62.59924	0.5752433
30.17261	4313.691	28.66892	-62.57156	0.5755206
30.22671	4310.29	28.58433	-62.54435	0.5752699
30.28082	4306.896	28.51064	-62.51753	0.5745055
30.33493	4303.511	28.45473	-62.49099	0.5732554
30.38903	4300.132	28.42063	-62.4646	0.5715725
30.44314	4296.755	28.40541	-62.43821	0.5695331
30.49725	4293.376	28.40255	-62.41164	0.5672498
30.55136	4289.993	28.40487	-62.3847	0.5648773
30.60546	4286.602	28.40493	-62.35717	0.5626168
30.65957	4283.207	28.39428	-62.3289	0.5607198
30.71368	4279.809	28.36688	-62.29969	0.5594884
30.76778	4276.413	28.32117	-62.2694	0.5592507
30.82189	4273.025	28.25649	-62.23787	0.5603157
30.876	4269.65	28.17081	-62.20495	0.5629293
30.93011	4266.285	28.06423	-62.17055	0.5672931
30.98421	4262.929	27.94291	-62.13458	0.5735424
31.03832	4259.581	27.81309	-62.09704	0.581754
31.09243	4256.239	27.68244	-62.05794	0.5919217
31.14653	4252.9	27.56289	-62.01735	0.6039489
31.20064	4249.563	27.46301	-61.97539	0.6176735
31.25475	4246.229	27.3812	-61.93222	0.6328573
31.30885	4242.894	27.31178	-61.88804	0.6491778
31.36296	4239.55	27.25287	-61.84306	0.6662372
31.41707	4236.198	27.20596	-61.7975	0.6835712
31.47117	4232.839	27.17288	-61.75154	0.7006887
31.52528	4229.48	27.15035	-61.70541	0.7170776
31.57939	4226.129	27.12787	-61.65931	0.732248
31.6335	4222.79	27.09288	-61.61343	0.7456973
31.6876	4219.469	27.03783	-61.568	0.7569528
31.74171	4216.166	26.96394	-61.5232	0.7655785
31.79582	4212.881	26.87589	-61.47919	0.7711965
31.84992	4209.613	26.78043	-61.43611	0.7734895
31.90403	4206.36	26.68658	-61.39403	0.7722222
31.95814	4203.122	26.6029	-61.35302	0.7672505
32.01225	4199.896	26.5377	-61.3131	0.7585331
32.06635	4196.676	26.49123	-61.2743	0.74613
32.12046	4193.454	26.4598	-61.23661	0.730177
32.17456	4190.222	26.43949	-61.20003	0.7108582
32.22867	4186.973	26.42873	-61.16453	0.6884068
32.28278	4183.702	26.42026	-61.1301	0.6630521
32.33689	4180.409	26.40842	-61.09674	0.6350473
32.391	4177.097	26.39135	-61.06447	0.6046484
32.4451	4173.771	26.37613	-61.03329	0.5721017
32.49921	4170.437	26.36649	-61.00325	0.5376577
32.55331	4167.1	26.35985	-60.97435	0.5015586
32.60742	4163.765	26.34878	-60.94666	0.4640909
32.66153	4160.437	26.32778	-60.92019	0.4255648
32.71564	4157.113	26.29362	-60.89499	0.3863501
32.76974	4153.796	26.2483	-60.87105	0.3468696
32.82385	4150.486	26.19621	-60.84833	0.3076264
32.87796	4147.178	26.14046	-60.82679	0.2692332
32.93206	4143.869	26.08881	-60.80634	0.2324304
32.98617	4140.558	26.04319	-60.78689	0.1981401
33.04028	4137.251	26.00817	-60.76834	0.1675168
33.09438	4133.95	25.98658	-60.7506	0.1419995
33.14849	4130.653	25.98129	-60.73351	0.1232469
33.2026	4127.357	25.98507	-60.71698	0.112645
33.25671	4124.062	25.98839	-60.70089	0.1103359
33.31081	4120.766	25.9839	-60.6851	0.1147277
33.36492	4117.471	25.9651	-60.66953	0.1233389
33.41903	4114.18	25.92859	-60.65409	0.1339785
33.47313	4110.897	25.8739	-60.63868	0.1452179
33.52724	4107.626	25.80515	-60.62321	0.1562904
33.58135	4104.37	25.73043	-60.6076	0.1668467
33.63546	4101.127	25.6607	-60.59179	0.1767591
33.68956	4097.898	25.60558	-60.57571	0.1859922
33.74367	4094.681	25.56643	-60.5593	0.194518
33.79778	4091.467	25.54272	-60.54247	0.2022765
33.85188	4088.248	25.53119	-60.52514	0.2091784
33.90599	4085.015	25.53362	-60.5072	0.2151041
33.9601	4081.767	25.55949	-60.48856	0.219939
34.0142	4078.502	25.61843	-60.46911	0.2236004
34.06831	4075.219	25.71865	-60.44873	0.2260645
34.12242	4071.919	25.86327	-60.42729	0.2273869
34.17653	4068.605	26.05069	-60.40467	0.2277114
34.23063	4065.28	26.26978	-60.38076	0.2272645
34.28474	4061.949	26.5001	-60.3555	0.2263589
34.33884	4058.622	26.71915	-60.32883	0.2253432
34.39295	4055.306	26.91056	-60.30079	0.2245701
34.44706	4052.004	27.06922	-60.27142	0.2243353
34.50117	4048.715	27.19815	-60.24079	0.2248435
34.55527	4045.437	27.30026	-60.20901	0.2261671
34.60938	4042.172	27.37703	-60.17618	0.2282566
34.66349	4038.924	27.43008	-60.1424	0.2309394
34.71759	4035.689	27.46678	-60.10774	0.2339624
34.7717	4032.465	27.49628	-60.07228	0.2370423
34.82581	4029.241	27.52703	-60.03605	0.2398856
34.87992	4026.009	27.5612	-59.99909	0.242231
34.93402	4022.764	27.59171	-59.9614	0.2438633
34.98813	4019.506	27.61319	-59.92299	0.2446247
35.04224	4016.242	27.61799	-59.88385	0.2444013
35.09634	4012.975	27.59806	-59.84398	0.2431252
35.15045	4009.708	27.54025	-59.80338	0.2407731
35.20456	4006.446	27.43416	-59.76204	0.2374142
35.25866	4003.193	27.27839	-59.71999	0.2332723
35.31277	3999.953	27.07679	-59.67723	0.2287581
35.36688	3996.729	26.83792	-59.63382	0.2245332
35.42099	3993.518	26.57288	-59.58978	0.2215158
35.47509	3990.313	26.29039	-59.54516	0.220871
35.5292	3987.106	26.00069	-59.5	0.2238745
35.58331	3983.885	25.71903	-59.45435	0.2316696
35.63741	3980.645	25.46525	-59.40828	0.244977
35.69152	3977.386	25.25564	-59.36183	0.2639481
35.74563	3974.114	25.09956	-59.31508	0.2881745
35.79974	3970.833	24.99187	-59.26809	0.3168876
35.85384	3967.547	24.92249	-59.22093	0.3491465
35.90795	3964.265	24.87919	-59.17369	0.3839789
35.96206	3960.998	24.85051	-59.12642	0.4204086
36.01616	3957.756	24.82673	-59.07917	0.4574911
36.07027	3954.55	24.80092	-59.03198	0.494329
36.12438	3951.381	24.77183	-58.98487	0.5301002
36.17848	3948.241	24.74453	-58.93789	0.5640787
36.23259	3945.12	24.7298	-58.89105	0.5956353
36.2867	3942.009	24.73606	-58.84441	0.6242696
36.34081	3938.901	24.76518	-58.798	0.6495996
36.39491	3935.786	24.81206	-58.75185	0.6713764
36.44902	3932.661	24.87505	-58.70597	0.6894685
36.50312	3929.524	24.95594	-58.6604	0.7038603
36.55723	3926.377	25.05721	-58.61512	0.7146319
36.61134	3923.224	25.17705	-58.57011	0.7219735
36.66545	3920.069	25.30519	-58.52531	0.7261335
36.71955	3916.913	25.4336	-58.48065	0.7274262
36.77366	3913.757	25.56034	-58.43604	0.7261796
36.82777	3910.6	25.67955	-58.39141	0.7227449
36.88187	3907.442	25.77901	-58.34665	0.7174639
36.93598	3904.283	25.85022	-58.30167	0.7107002
36.99009	3901.127	25.89112	-58.25641	0.7028026
37.0442	3897.977	25.90565	-58.21075	0.6941379
37.0983	3894.835	25.90326	-58.16463	0.6850658
37.15241	3891.698	25.88784	-58.11799	0.6759349
37.20652	3888.563	25.86162	-58.07075	0.6670702
37.26062	3885.427	25.82782	-58.02286	0.6587755
37.31473	3882.291	25.79095	-57.97425	0.6513329
37.36884	3879.159	25.76106	-57.92486	0.6449941
37.42294	3876.036	25.74767	-57.87463	0.6399618
37.47705	3872.927	25.75484	-57.82351	0.6363716
37.53116	3869.834	25.78121	-57.77145	0.6342825
37.58527	3866.755	25.82074	-57.71841	0.6336783
37.63937	3863.682	25.8657	-57.66438	0.6344606
37.69348	3860.611	25.91232	-57.60931	0.6364436
37.74759	3857.54	25.95711	-57.55321	0.6393871
37.80169	3854.464	25.99746	-57.49612	0.6430085
37.8558	3851.377	26.03286	-57.43813	0.6470118
37.90991	3848.275	26.06333	-57.37933	0.6510814
37.96402	3845.153	26.08651	-57.31986	0.654898
38.01812	3842.014	26.09949	-57.25982	0.6581627
38.07223	3838.866	26.09834	-57.19932	0.6606337
38.12634	3835.715	26.08179	-57.1385	0.6621335
38.18044	3832.567	26.05551	-57.07743	0.6625694
38.23455	3829.427	26.02495	-57.01623	0.6619043
38.28866	3826.292	25.98692	-56.95496	0.660167
38.34276	3823.158	25.93204	-56.8937	0.6574312
38.39687	3820.02	25.84493	-56.83253	0.653796
38.45098	3816.873	25.71081	-56.77153	0.6493962
38.50508	3813.719	25.52633	-56.7108	0.6443722
38.55919	3810.565	25.2944	-56.65044	0.6388553
38.6133	3807.416	25.01795	-56.5906	0.6329356
38.6674	3804.278	24.70217	-56.53139	0.6266336
38.72151	3801.154	24.35967	-56.47297	0.6199174
38.77562	3798.049	24.00958	-56.41548	0.6126893
38.82973	3794.964	23.67309	-56.35907	0.6047932
38.88383	3791.899	23.36749	-56.30389	0.5960314
38.93794	3788.849	23.10317	-56.2501	0.5861733
38.99205	3785.809	22.88533	-56.1978	0.5749916
39.04615	3782.777	22.71944	-56.14713	0.56228
39.10026	3779.755	22.60855	-56.09819	0.547854
39.15437	3776.747	22.55019	-56.0511	0.5316045
39.20848	3773.755	22.53536	-56.00591	0.5134664
39.26258	3770.78	22.5505	-55.96266	0.4934719
39.31669	3767.816	22.58207	-55.92134	0.4717149
39.3708	3764.858	22.61962	-55.88192	0.4483544
39.4249	3761.901	22.65459	-55.84431	0.4236046
39.47901	3758.941	22.68304	-55.80845	0.3977241
39.53312	3755.978	22.70804	-55.77425	0.3710721
39.58722	3753.011	22.73181	-55.74162	0.3441098
39.64133	3750.04	22.76193	-55.71051	0.3174642
39.69544	3747.064	22.80823	-55.68085	0.2919752
39.74955	3744.09	22.87661	-55.6526	0.268742
39.80365	3741.12	22.96765	-55.62576	0.2491589
39.85776	3738.159	23.07914	-55.60028	0.2347812
39.91187	3735.206	23.20655	-55.57614	0.2270525
39.96597	3732.262	23.34701	-55.55327	0.2268143
40.02008	3729.33	23.49676	-55.53157	0.2339101
40.07419	3726.412	23.64777	-55.51094	0.2471903
40.1283	3723.51	23.79375	-55.49125	0.2649187
40.1824	3720.623	23.93679	-55.47234	0.2852416
40.23651	3717.745	24.07764	-55.45406	0.3065149
40.29062	3714.867	24.21665	-55.43623	0.3273962
40.34472	3711.979	24.35073	-55.41872	0.3468699
40.39883	3709.068	24.46978	-55.40137	0.3641781
40.45294	3706.129	24.57133	-55.38411	0.3787933
40.50705	3703.165	24.66153	-55.36685	0.3903547
40.56115	3700.183	24.74729	-55.34958	0.398662
40.61526	3697.188	24.8335	-55.33229	0.4036459
40.66936	3694.187	24.92102	-55.31502	0.4053596
40.72347	3691.186	25.00865	-55.29779	0.4039817
40.77758	3688.195	25.1004	-55.28065	0.3997921
40.83168	3685.22	25.20172	-55.26362	0.3931879
40.88579	3682.263	25.31689	-55.24673	0.3846864
40.9399	3679.313	25.44766	-55.23002	0.3749362
40.99401	3676.359	25.59008	-55.2135	0.3646932
41.04811	3673.389	25.73971	-55.1972	0.3548296
41.10222	3670.394	25.89311	-55.18114	0.3462999
41.15633	3667.362	26.04505	-55.16532	0.340101
41.21043	3664.291	26.18601	-55.14973	0.3371953
41.26454	3661.181	26.30381	-55.1343	0.3384098
41.31865	3658.039	26.38779	-55.11898	0.3443629
41.37276	3654.879	26.42994	-55.10367	0.3554016
41.42686	3651.718	26.42793	-55.08826	0.3715673
41.48097	3648.571	26.38525	-55.07263	0.3926458
41.53508	3645.45	26.30611	-55.05668	0.418202
41.58918	3642.361	26.19867	-55.04031	0.4476733
41.64329	3639.305	26.07355	-55.02343	0.4804222
41.6974	3636.28	25.94087	-55.00596	0.5158084
41.75151	3633.28	25.80914	-54.98779	0.5532103
41.80561	3630.298	25.6805	-54.9688	0.5920523
41.85972	3627.325	25.55229	-54.94884	0.6318006
41.91383	3624.349	25.42258	-54.92773	0.6719751
41.96793	3621.359	25.29126	-54.90528	0.7121194
42.02204	3618.347	25.15322	-54.88133	0.751797
42.07615	3615.31	25.00018	-54.8557	0.79058
42.13025	3612.25	24.82586	-54.82825	0.8280504
42.18436	3609.176	24.62808	-54.79887	0.8637779
42.23847	3606.103	24.40911	-54.76747	0.897365
42.29258	3603.048	24.17693	-54.73399	0.928435
42.34668	3600.026	23.9403	-54.69844	0.9566539
42.40079	3597.049	23.70764	-54.66083	0.9817559
42.4549	3594.125	23.48647	-54.62124	1.00352
42.509	3591.253	23.27803	-54.57978	1.021807
42.56311	3588.426	23.08203	-54.53656	1.036526
42.61722	3585.627	22.89855	-54.49176	1.047638
42.67133	3582.838	22.72582	-54.44553	1.055068
42.72543	3580.043	22.56412	-54.39804	1.058755
42.77954	3577.234	22.42017	-54.34946	1.058604
42.83364	3574.402	22.29953	-54.29993	1.05452
42.88775	3571.542	22.20415	-54.24961	1.046429
42.94186	3568.652	22.12842	-54.19867	1.034279
42.99596	3565.732	22.06007	-54.14729	1.018076
43.05007	3562.79	21.9931	-54.09568	0.9978919
43.10418	3559.838	21.92831	-54.04406	0.9738854
43.15829	3556.89	21.87264	-53.99271	0.9462937
43.21239	3553.958	21.83577	-53.94187	0.9154531
43.2665	3551.046	21.82573	-53.89184	0.8817906
