T[Â°C]	330nm [counts / mm]	S.D.	First derivative	S.D. of first derivative
20.00045	3211.489		-45.73503	
20.0544	3208.742		-45.67489	
20.10835	3206		-45.61557	
20.1623	3203.263		-45.55708	
20.21625	3200.531		-45.49946	
20.2702	3197.803		-45.4427	
20.32414	3195.08		-45.38683	
20.37809	3192.36		-45.33186	
20.43204	3189.644		-45.2778	
20.48599	3186.934		-45.22465	
20.53994	3184.229		-45.17242	
20.59389	3181.531		-45.12109	
20.64784	3178.84		-45.07067	
20.70179	3176.158		-45.02115	
20.75574	3173.486		-44.9725	
20.80969	3170.825		-44.92471	
20.86364	3168.178		-44.87775	
20.91759	3165.551		-44.83159	
20.97153	3162.961		-44.7862	
21.02548	3160.512		-44.74152	
21.07943	3158.08		-44.69751	
21.13338	3155.659		-44.65411	
21.18733	3153.247		-44.61125	
21.24128	3150.848		-44.56887	
21.29523	3148.478		-44.52689	
21.34918	3146.148		-44.48525	
21.40313	3143.864		-44.44386	
21.45708	3141.63		-44.40263	
21.51102	3139.437		-44.36149	
21.56497	3137.281		-44.32034	
21.61892	3135.163		-44.27908	
21.67287	3133.079		-44.23763	
21.72682	3131.017		-44.19589	
21.78077	3128.954		-44.15377	
21.83472	3126.868		-44.11116	
21.88867	3124.743		-44.06797	
21.94262	3122.576		-44.02412	
21.99657	3120.369		-43.97953	
22.05052	3118.128		-43.93412	
22.10447	3115.859		-43.88784	
22.15841	3113.572		-43.84067	
22.21236	3111.273		-43.79263	
22.26631	3108.964		-43.7438	
22.32026	3106.645		-43.69443	
22.37421	3104.317		-43.64491	
22.42816	3101.977		-43.59596	
22.48211	3099.621		-43.54869	
22.53606	3097.251		-43.50465	
22.59001	3094.87		-43.46569	
22.64396	3092.481		-43.43649	
22.6979	3090.082		-43.40876	
22.75185	3087.667		-43.38269	
22.8058	3085.23		-43.35843	
22.85975	3082.765		-43.33612	
22.9137	3080.28		-43.31585	
22.96765	3077.781		-43.29769	
23.0216	3075.271		-43.28165	
23.07555	3072.757		-43.26769	
23.1295	3070.246		-43.25572	
23.18345	3067.746		-43.24564	
23.2374	3065.271		-43.23735	
23.29135	3062.829		-43.23071	
23.34529	3060.421		-43.22556	
23.39924	3058.045		-43.22169	
23.45319	3055.688		-43.21887	
23.50714	3053.337		-43.21684	
23.56109	3050.985		-43.21528	
23.61504	3048.633		-43.21391	
23.66899	3046.279		-43.21241	
23.72294	3043.918		-43.2105	
23.77689	3041.544		-43.20789	
23.83084	3039.153		-43.2043	
23.88478	3036.747		-43.19948	
23.93873	3034.335		-43.19319	
23.99268	3031.93		-43.18523	
24.04663	3029.54		-43.17544	
24.10058	3027.17		-43.16374	
24.15453	3024.829		-43.15012	
24.20848	3022.526		-43.13461	
24.26243	3020.27		-43.11729	
24.31638	3018.06		-43.09822	
24.37033	3015.884		-43.07749	
24.42428	3013.72		-43.05516	
24.47823	3011.555		-43.0313	
24.53218	3009.376		-43.006	
24.58612	3007.174		-42.97927	
24.64007	3004.949		-42.95112	
24.69402	3002.706		-42.92155	
24.74797	3000.452		-42.89057	
24.80192	2998.192		-42.85817	
24.85587	2995.936		-42.82439	
24.90982	2993.7		-42.78929	
24.96377	2991.491		-42.75294	
25.01772	2989.306		-42.71548	
25.07166	2987.136		-42.6771	
25.12561	2984.969		-42.63803	
25.17956	2982.794		-42.59848	
25.23351	2980.607		-42.5587	
25.28746	2978.397		-42.51891	
25.34141	2976.153		-42.47927	
25.39536	2973.864		-42.43999	
25.44931	2971.521		-42.40122	
25.50326	2969.129		-42.36311	
25.55721	2966.699		-42.32582	
25.61116	2964.25		-42.28949	
25.66511	2961.802		-42.25429	
25.71906	2959.365		-42.22033	
25.773	2956.942		-42.18773	
25.82695	2954.536		-42.15656	
25.8809	2952.15		-42.12685	
25.93485	2949.783		-42.09862	
25.9888	2947.437		-42.07188	
26.04275	2945.105		-42.04665	
26.0967	2942.783		-42.02294	
26.15065	2940.459		-42.00081	
26.2046	2938.128		-41.98025	
26.25854	2935.792		-41.96122	
26.31249	2933.452		-41.94361	
26.36644	2931.114		-41.92728	
26.42039	2928.784		-41.91204	
26.47434	2926.468		-41.89771	
26.52829	2924.168		-41.88405	
26.58224	2921.882		-41.87082	
26.63619	2919.608		-41.85772	
26.69014	2917.345		-41.84447	
26.74409	2915.088		-41.83075	
26.79804	2912.832		-41.81625	
26.85199	2910.578		-41.80061	
26.90594	2908.332		-41.78352	
26.95988	2906.099		-41.76468	
27.01383	2903.885		-41.74385	
27.06778	2901.689		-41.7209	
27.12173	2899.515		-41.69576	
27.17568	2897.37		-41.66845	
27.22963	2895.256		-41.63905	
27.28358	2893.169		-41.60769	
27.33753	2891.097		-41.57457	
27.39148	2889.031		-41.5399	
27.44543	2886.959		-41.50397	
27.49937	2884.873		-41.46715	
27.55332	2882.764		-41.42982	
27.60727	2880.629		-41.39239	
27.66122	2878.464		-41.35531	
27.71517	2876.271		-41.31901	
27.76912	2874.062		-41.28387	
27.82307	2871.848		-41.25027	
27.87702	2869.632		-41.21848	
27.93097	2867.418		-41.18876	
27.98492	2865.208		-41.16133	
28.03887	2863.003		-41.13638	
28.09282	2860.793		-41.11406	
28.14676	2858.565		-41.09447	
28.20071	2856.315		-41.07767	
28.25466	2854.044		-41.06364	
28.30861	2851.755		-41.05233	
28.36256	2849.449		-41.04365	
28.41651	2847.128		-41.03748	
28.47046	2844.795		-41.03372	
28.52441	2842.451		-41.03223	
28.57836	2840.102		-41.0329	
28.63231	2837.752		-41.03558	
28.68625	2835.406		-41.04011	
28.7402	2833.068		-41.04628	
28.79415	2830.745		-41.05383	
28.8481	2828.449		-41.06242	
28.90205	2826.188		-41.07166	
28.956	2823.968		-41.0811	
29.00995	2821.78		-41.09028	
29.0639	2819.616		-41.09875	
29.11785	2817.474		-41.10608	
29.1718	2815.348		-41.11186	
29.22575	2813.229		-41.1158	
29.2797	2811.111		-41.11763	
29.33364	2808.994		-41.11717	
29.38759	2806.876		-41.11434	
29.44154	2804.763		-41.10912	
29.49549	2802.655		-41.10156	
29.54944	2800.552		-41.09176	
29.60339	2798.448		-41.07985	
29.65734	2796.329		-41.06602	
29.71129	2794.184		-41.05046	
29.76524	2792.009		-41.03337	
29.81919	2789.803		-41.0149	
29.87314	2787.573		-40.99516	
29.92708	2785.329		-40.97425	
29.98103	2783.086		-40.95221	
30.03498	2780.844		-40.92905	
30.08893	2778.594		-40.90472	
30.14288	2776.325		-40.87917	
30.19683	2774.031		-40.85232	
30.25078	2771.708		-40.8241	
30.30473	2769.362		-40.79444	
30.35868	2767.003		-40.76331	
30.41263	2764.646		-40.73067	
30.46658	2762.303		-40.69653	
30.52052	2759.988		-40.66093	
30.57447	2757.708		-40.62393	
30.62842	2755.469		-40.58559	
30.68237	2753.268		-40.54604	
30.73632	2751.099		-40.50537	
30.79027	2748.952		-40.46368	
30.84422	2746.821		-40.42102	
30.89817	2744.701		-40.37738	
30.95212	2742.59		-40.33273	
31.00607	2740.482		-40.28698	
31.06002	2738.373		-40.24004	
31.11396	2736.26		-40.19178	
31.16791	2734.135		-40.14208	
31.22186	2731.988		-40.09087	
31.27581	2729.821		-40.03811	
31.32976	2727.641		-39.98382	
31.38371	2725.461		-39.92809	
31.43766	2723.289		-39.87109	
31.49161	2721.131		-39.81298	
31.54556	2718.985		-39.75398	
31.59951	2716.844		-39.69433	
31.65346	2714.693		-39.63432	
31.70741	2712.518		-39.57426	
31.76135	2710.308		-39.51452	
31.8153	2708.062		-39.45542	
31.86925	2705.784		-39.3973	
31.9232	2703.485		-39.34046	
31.97715	2701.178		-39.28519	
32.0311	2698.883		-39.23171	
32.08505	2696.625		-39.18024	
32.139	2694.421		-39.13094	
32.19295	2692.278		-39.08396	
32.24689	2690.193		-39.03943	
32.30085	2688.161		-38.99746	
32.35479	2686.178		-38.95813	
32.40874	2684.234		-38.92152	
32.46269	2682.317		-38.88768	
32.51664	2680.406		-38.85664	
32.57059	2678.493		-38.82838	
32.62454	2676.571		-38.80286	
32.67849	2674.631		-38.78	
32.73244	2672.664		-38.75972	
32.78639	2670.665		-38.74189	
32.84034	2668.637		-38.72641	
32.89429	2666.592		-38.71312	
32.94823	2664.54		-38.70187	
33.00218	2662.492		-38.69249	
33.05613	2660.459		-38.68477	
33.11008	2658.448		-38.67851	
33.16403	2656.452		-38.67345	
33.21798	2654.458		-38.66939	
33.27193	2652.456		-38.66608	
33.32588	2650.442		-38.66335	
33.37983	2648.41		-38.66103	
33.43378	2646.36		-38.65898	
33.48772	2644.302		-38.6571	
33.54168	2642.237		-38.65526	
33.59562	2640.164		-38.65336	
33.64957	2638.086		-38.65131	
33.70352	2636.005		-38.64901	
33.75747	2633.919		-38.64642	
33.81142	2631.826		-38.64349	
33.86537	2629.723		-38.64026	
33.91932	2627.608		-38.63679	
33.97327	2625.481		-38.63316	
34.02722	2623.353		-38.62942	
34.08117	2621.234		-38.62565	
34.13511	2619.131		-38.62194	
34.18906	2617.048		-38.61835	
34.24301	2614.976		-38.61499	
34.29696	2612.904		-38.61197	
34.35091	2610.827		-38.60939	
34.40486	2608.74		-38.60738	
34.45881	2606.638		-38.60605	
34.51276	2604.513		-38.60548	
34.56671	2602.37		-38.60577	
34.62066	2600.208		-38.60698	
34.67461	2598.022		-38.60911	
34.72855	2595.808		-38.61214	
34.78251	2593.565		-38.61599	
34.83645	2591.304		-38.62054	
34.8904	2589.037		-38.6257	
34.94435	2586.775		-38.6313	
34.9983	2584.529		-38.63714	
35.05225	2582.303		-38.64301	
35.1062	2580.1		-38.64867	
35.16015	2577.918		-38.65384	
35.2141	2575.761		-38.65826	
35.26805	2573.633		-38.66162	
35.32199	2571.54		-38.66367	
35.37594	2569.477		-38.66418	
35.42989	2567.439		-38.66298	
35.48384	2565.421		-38.65993	
35.53779	2563.414		-38.65495	
35.59174	2561.417		-38.64795	
35.64569	2559.434		-38.63889	
35.69964	2557.47		-38.6277	
35.75359	2555.526		-38.61434	
35.80754	2553.598		-38.59882	
35.86148	2551.679		-38.58118	
35.91544	2549.758		-38.56147	
35.96938	2547.828		-38.53979	
36.02333	2545.884		-38.51622	
36.07728	2543.924		-38.49084	
36.13123	2541.956		-38.46376	
36.18518	2539.986		-38.43509	
36.23913	2538.017		-38.40495	
36.29308	2536.047		-38.3735	
36.34703	2534.076		-38.34094	
36.40098	2532.093		-38.30745	
36.45493	2530.088		-38.27326	
36.50888	2528.054		-38.23864	
36.56282	2525.99		-38.20386	
36.61677	2523.896		-38.1692	
36.67072	2521.768		-38.13494	
36.72467	2519.604		-38.1013	
36.77862	2517.402		-38.06847	
36.83257	2515.165		-38.03658	
36.88652	2512.903		-38.00569	
36.94047	2510.635		-37.97579	
36.99442	2508.384		-37.94678	
37.04837	2506.156		-37.91846	
37.10231	2503.959		-37.89059	
37.15627	2501.791		-37.86286	
37.21021	2499.65		-37.83491	
37.26416	2497.533		-37.80634	
37.31811	2495.439		-37.77678	
37.37206	2493.361		-37.7459	
37.42601	2491.298		-37.7134	
37.47996	2489.248		-37.67904	
37.53391	2487.214		-37.64263	
37.58786	2485.194		-37.60405	
37.64181	2483.185		-37.56323	
37.69576	2481.184		-37.52018	
37.7497	2479.191		-37.47496	
37.80365	2477.212		-37.4277	
37.8576	2475.25		-37.3786	
37.91155	2473.303		-37.32786	
37.9655	2471.366		-37.27571	
38.01945	2469.425		-37.22237	
38.0734	2467.472		-37.16806	
38.12735	2465.499		-37.11301	
38.1813	2463.507		-37.05742	
38.23524	2461.497		-37.00152	
38.2892	2459.48		-36.9455	
38.34314	2457.463		-36.88959	
38.39709	2455.449		-36.834	
38.45104	2453.439		-36.779	
38.50499	2451.43		-36.72486	
38.55894	2449.422		-36.6719	
38.61289	2447.414		-36.62046	
38.66684	2445.403		-36.57088	
38.72079	2443.388		-36.52349	
38.77474	2441.37		-36.47858	
38.82869	2439.345		-36.43641	
38.88264	2437.313		-36.39718	
38.93658	2435.281		-36.36101	
38.99053	2433.257		-36.32795	
39.04448	2431.248		-36.298	
39.09843	2429.266		-36.27109	
39.15238	2427.323		-36.2471	
39.20633	2425.428		-36.22585	
39.26028	2423.582		-36.20709	
39.31423	2421.781		-36.19055	
39.36818	2420.016		-36.1759	
39.42213	2418.275		-36.1628	
39.47607	2416.551		-36.1509	
39.53003	2414.836		-36.13988	
39.58397	2413.12		-36.12941	
39.63792	2411.388		-36.1192	
39.69187	2409.628		-36.109	
39.74582	2407.833		-36.09863	
39.79977	2405.998		-36.08794	
39.85372	2404.127		-36.07682	
39.90767	2402.224		-36.06523	
39.96162	2400.297		-36.05314	
40.01557	2398.347		-36.04055	
40.06952	2396.38		-36.02746	
40.12347	2394.398		-36.01386	
40.17741	2392.402		-35.99973	
40.23136	2390.396		-35.98506	
40.28531	2388.379		-35.9698	
40.33926	2386.354		-35.95391	
40.39321	2384.32		-35.93732	
40.44716	2382.276		-35.91997	
40.50111	2380.222		-35.90178	
40.55506	2378.167		-35.8827	
40.609	2376.114		-35.86272	
40.66296	2374.068		-35.84185	
40.7169	2372.028		-35.82017	
40.77085	2369.992		-35.79776	
40.8248	2367.959		-35.77473	
40.87875	2365.931		-35.7512	
40.9327	2363.91		-35.72728	
40.98665	2361.896		-35.70304	
41.0406	2359.889		-35.67857	
41.09455	2357.892		-35.65391	
41.1485	2355.909		-35.62907	
41.20245	2353.945		-35.60408	
41.2564	2352.001		-35.57887	
41.31034	2350.08		-35.5534	
41.3643	2348.173		-35.52754	
41.41824	2346.277		-35.50119	
41.47219	2344.386		-35.47423	
41.52614	2342.493		-35.44655	
41.58009	2340.593		-35.41807	
41.63404	2338.676		-35.38871	
41.68799	2336.74		-35.35845	
41.74194	2334.78		-35.3273	
41.79589	2332.801		-35.29528	
41.84983	2330.81		-35.26243	
41.90379	2328.82		-35.22881	
41.95773	2326.843		-35.1945	
42.01168	2324.887		-35.1596	
42.06563	2322.957		-35.12424	
42.11958	2321.056		-35.08848	
42.17353	2319.187		-35.0524	
42.22748	2317.35		-35.01603	
42.28143	2315.542		-34.97937	
42.33538	2313.761		-34.94241	
42.38933	2312.004		-34.90509	
42.44328	2310.262		-34.86732	
42.49723	2308.524		-34.82903	
42.55117	2306.781		-34.79012	
42.60512	2305.034		-34.75053	
42.65907	2303.286		-34.71025	
42.71302	2301.537		-34.66936	
42.76697	2299.784		-34.62797	
42.82092	2298.031		-34.58628	
42.87487	2296.281		-34.54449	
42.92882	2294.534		-34.50287	
42.98277	2292.787		-34.4617	
43.03672	2291.035		-34.42125	
43.09066	2289.27		-34.38183	
43.14462	2287.484		-34.34372	
43.19856	2285.67		-34.30721	
43.25251	2283.82		-34.27251	
43.30646	2281.931		-34.23983	
43.36041	2280.006		-34.20932	
43.41436	2278.051		-34.1811	
43.46831	2276.076		-34.15523	
43.52226	2274.094		-34.13175	
43.57621	2272.118		-34.11066	
43.63016	2270.158		-34.09197	
43.6841	2268.216		-34.07568	
43.73806	2266.287		-34.06177	
43.792	2264.367		-34.05021	
43.84595	2262.453		-34.04092	
43.8999	2260.546		-34.0338	
43.95385	2258.648		-34.02869	
44.0078	2256.756		-34.0254	
44.06175	2254.868		-34.02369	
44.1157	2252.983		-34.02329	
44.16965	2251.103		-34.02385	
44.22359	2249.221		-34.025	
44.27755	2247.332		-34.02632	
44.33149	2245.441		-34.02736	
44.38544	2243.557		-34.02766	
44.43939	2241.692		-34.02677	
44.49334	2239.85		-34.0242	
44.54729	2238.031		-34.01952	
44.60124	2236.24		-34.01231	
44.65519	2234.478		-34.00222	
44.70914	2232.739		-33.98898	
44.76309	2231.016		-33.97239	
44.81704	2229.306		-33.95235	
44.87099	2227.601		-33.92883	
44.92493	2225.898		-33.90193	
44.97889	2224.19		-33.87178	
45.03283	2222.473		-33.83864	
45.08678	2220.75		-33.80284	
45.14073	2219.018		-33.76476	
45.19468	2217.274		-33.72487	
45.24863	2215.513		-33.68359	
45.30258	2213.733		-33.64141	
45.35653	2211.937		-33.59877	
45.41048	2210.124		-33.55617	
45.46442	2208.297		-33.51406	
45.51838	2206.459		-33.47289	
45.57232	2204.614		-33.43308	
45.62627	2202.763		-33.395	
45.68022	2200.902		-33.35899	
45.73417	2199.023		-33.32536	
45.78812	2197.125		-33.29439	
45.84207	2195.207		-33.26628	
45.89602	2193.27		-33.24123	
45.94997	2191.32		-33.21937	
46.00392	2189.364		-33.20082	
46.05787	2187.412		-33.18568	
46.11182	2185.473		-33.17397	
46.16576	2183.554		-33.16571	
46.21971	2181.662		-33.16081	
46.27366	2179.793		-33.15915	
46.32761	2177.948		-33.16052	
46.38156	2176.134		-33.16465	
46.43551	2174.359		-33.1712	
46.48946	2172.625		-33.17974	
46.54341	2170.928		-33.18979	
46.59736	2169.26		-33.20083	
46.65131	2167.615		-33.21228	
46.70525	2165.986		-33.22356	
46.7592	2164.366		-33.23407	
46.81315	2162.746		-33.24329	
46.8671	2161.12		-33.25072	
46.92105	2159.481		-33.25596	
46.975	2157.83		-33.25869	
47.02895	2156.168		-33.25863	
47.0829	2154.499		-33.25563	
47.13685	2152.82		-33.24954	
47.1908	2151.131		-33.24031	
47.24475	2149.428		-33.22791	
47.29869	2147.709		-33.21232	
47.35265	2145.968		-33.19362	
47.40659	2144.198		-33.17191	
47.46054	2142.4		-33.14733	
47.51449	2140.58		-33.12004	
47.56844	2138.744		-33.09026	
47.62239	2136.893		-33.05816	
47.67634	2135.033		-33.02396	
47.73029	2133.172		-32.98785	
47.78424	2131.319		-32.95003	
47.83818	2129.479		-32.91074	
47.89214	2127.648		-32.8702	
47.94608	2125.821		-32.82872	
48.00003	2123.991		-32.78657	
48.05398	2122.155		-32.74411	
48.10793	2120.311		-32.70168	
48.16188	2118.467		-32.65964	
48.21583	2116.626		-32.61835	
48.26978	2114.783		-32.57812	
48.32373	2112.934		-32.53924	
48.37768	2111.078		-32.50193	
48.43163	2109.217		-32.46636	
48.48558	2107.349		-32.4326	
48.53952	2105.473		-32.40068	
48.59348	2103.589		-32.37053	
48.64742	2101.699		-32.342	
48.70137	2099.804		-32.31488	
48.75532	2097.904		-32.28895	
48.80927	2096.005		-32.26394	
48.86322	2094.114		-32.2396	
48.91717	2092.242		-32.21567	
48.97112	2090.403		-32.19194	
49.02507	2088.606		-32.16819	
49.07901	2086.851		-32.14421	
49.13297	2085.137		-32.11983	
49.18691	2083.461		-32.0949	
49.24086	2081.822		-32.06929	
49.29481	2080.211		-32.04289	
49.34876	2078.615		-32.01563	
49.40271	2077.03		-31.98749	
49.45666	2075.45		-31.95843	
49.51061	2073.874		-31.92847	
49.56456	2072.295		-31.89768	
49.61851	2070.712		-31.86612	
49.67245	2069.126		-31.83392	
49.72641	2067.549		-31.80121	
49.78035	2065.992		-31.76819	
49.8343	2064.463		-31.73505	
49.88825	2062.965		-31.70203	
49.9422	2061.493		-31.66937	
49.99615	2060.036		-31.63735	
50.0501	2058.577		-31.60623	
50.10405	2057.094		-31.57626	
50.158	2055.57		-31.54769	
50.21195	2053.99		-31.52077	
50.2659	2052.347		-31.49572	
50.31984	2050.637		-31.47281	
50.37379	2048.868		-31.45222	
50.42774	2047.054		-31.43416	
50.48169	2045.215		-31.41874	
50.53564	2043.368		-31.40605	
50.58959	2041.527		-31.39613	
50.64354	2039.699		-31.38895	
50.69749	2037.888		-31.38447	
50.75144	2036.094		-31.38256	
50.80539	2034.317		-31.38304	
50.85934	2032.55		-31.38568	
50.91328	2030.79		-31.39018	
50.96724	2029.038		-31.39618	
51.02118	2027.29		-31.40327	
51.07513	2025.54		-31.41101	
51.12908	2023.786		-31.41889	
51.18303	2022.031		-31.42646	
51.23698	2020.272		-31.43323	
51.29093	2018.51		-31.43874	
51.34488	2016.747		-31.44258	
51.39883	2014.99		-31.44439	
51.45277	2013.242		-31.44385	
51.50673	2011.51		-31.44071	
51.56067	2009.798		-31.43476	
51.61462	2008.103		-31.42584	
51.66857	2006.423		-31.41385	
51.72252	2004.755		-31.39874	
51.77647	2003.093		-31.3805	
51.83042	2001.436		-31.35918	
51.88437	1999.781		-31.33488	
51.93832	1998.125		-31.30773	
51.99227	1996.465		-31.27792	
52.04622	1994.802		-31.2457	
52.10017	1993.132		-31.21133	
52.15411	1991.451		-31.17517	
52.20807	1989.753		-31.13758	
52.26201	1988.035		-31.099	
52.31596	1986.294		-31.05984	
52.36991	1984.53		-31.02057	
52.42386	1982.753		-30.98158	
52.47781	1980.971		-30.94328	
52.53176	1979.197		-30.90604	
52.58571	1977.441		-30.87019	
52.63966	1975.711		-30.83603	
52.6936	1974.017		-30.80382	
52.74755	1972.358		-30.77375	
52.8015	1970.729		-30.74597	
52.85545	1969.115		-30.72049	
52.9094	1967.499		-30.6973	
52.96335	1965.875		-30.67626	
53.0173	1964.236		-30.65718	
53.07125	1962.585		-30.63981	
53.1252	1960.929		-30.62381	
53.17915	1959.28		-30.60883	
53.2331	1957.648		-30.59448	
53.28704	1956.037		-30.58039	
53.341	1954.448		-30.56619	
53.39494	1952.88		-30.55157	
53.44889	1951.338		-30.53625	
53.50284	1949.824		-30.52004	
53.55679	1948.334		-30.50275	
53.61074	1946.864		-30.48428	
53.66469	1945.405		-30.46453	
53.71864	1943.944		-30.44347	
53.77259	1942.468		-30.42107	
53.82654	1940.969		-30.39734	
53.88049	1939.443		-30.37233	
53.93443	1937.886		-30.34611	
53.98838	1936.296		-30.31883	
54.04233	1934.677		-30.29067	
54.09628	1933.036		-30.26184	
54.15023	1931.38		-30.2326	
54.20418	1929.714		-30.20321	
54.25813	1928.044		-30.17399	
54.31208	1926.372		-30.1452	
54.36603	1924.7		-30.11713	
54.41998	1923.021		-30.09004	
54.47393	1921.329		-30.06413	
54.52787	1919.618		-30.03963	
54.58183	1917.88		-30.01668	
54.63577	1916.113		-29.99539	
54.68972	1914.32		-29.97581	
54.74367	1912.51		-29.95793	
54.79762	1910.695		-29.9417	
54.85157	1908.885		-29.92699	
54.90552	1907.091		-29.91361	
54.95947	1905.324		-29.90133	
55.01342	1903.588		-29.88988	
55.06737	1901.883		-29.87892	
55.12132	1900.205		-29.8681	
55.17526	1898.55		-29.85702	
55.22921	1896.911		-29.84525	
55.28316	1895.285		-29.83233	
55.33711	1893.67		-29.81785	
55.39106	1892.07		-29.80135	
55.44501	1890.491		-29.78244	
55.49896	1888.932		-29.76075	
55.55291	1887.387		-29.73598	
55.60686	1885.859		-29.70783	
55.6608	1884.344		-29.67611	
55.71476	1882.844		-29.64066	
55.7687	1881.356		-29.60144	
55.82265	1879.885		-29.55844	
55.8766	1878.43		-29.51179	
55.93055	1876.985		-29.46168	
55.9845	1875.538		-29.40837	
56.03845	1874.084		-29.35224	
56.0924	1872.614		-29.29368	
56.14635	1871.123		-29.23315	
56.2003	1869.605		-29.17112	
