T[Â°C]	350nm [counts / mm]	S.D.	First derivative	S.D. of first derivative
20.00045	2815.757		-40.1949	
20.0544	2813.462		-40.15802	
20.10835	2811.16		-40.12206	
20.1623	2808.851		-40.08704	
20.21625	2806.536		-40.053	
20.2702	2804.217		-40.01995	
20.32414	2801.895		-39.98792	
20.37809	2799.57		-39.95691	
20.43204	2797.245		-39.92695	
20.48599	2794.918		-39.89805	
20.53994	2792.592		-39.87021	
20.59389	2790.266		-39.84343	
20.64784	2787.941		-39.81773	
20.70179	2785.618		-39.79308	
20.75574	2783.297		-39.76949	
20.80969	2780.975		-39.74694	
20.86364	2778.646		-39.72541	
20.91759	2776.292		-39.70488	
20.97153	2773.892		-39.68532	
21.02548	2771.56		-39.66669	
21.07943	2769.256		-39.64897	
21.13338	2766.988		-39.63209	
21.18733	2764.76		-39.61601	
21.24128	2762.576		-39.60066	
21.29523	2760.436		-39.58598	
21.34918	2758.341		-39.57191	
21.40313	2756.295		-39.55835	
21.45708	2754.302		-39.54524	
21.51102	2752.365		-39.53249	
21.56497	2750.483		-39.52001	
21.61892	2748.652		-39.50771	
21.67287	2746.862		-39.49549	
21.72682	2745.093		-39.48325	
21.78077	2743.323		-39.47088	
21.83472	2741.54		-39.45828	
21.88867	2739.731		-39.44532	
21.94262	2737.89		-39.43188	
21.99657	2736.013		-39.41787	
22.05052	2734.097		-39.40316	
22.10447	2732.147		-39.38766	
22.15841	2730.169		-39.37131	
22.21236	2728.173		-39.35406	
22.26631	2726.164		-39.33599	
22.32026	2724.143		-39.31727	
22.37421	2722.107		-39.2983	
22.42816	2720.047		-39.27981	
22.48211	2717.953		-39.26298	
22.53606	2715.816		-39.2495	
22.59001	2713.635		-39.24139	
22.64396	2711.418		-39.25873	
22.6979	2709.171		-39.27843	
22.75185	2706.892		-39.3004	
22.8058	2704.586		-39.32449	
22.85975	2702.266		-39.35051	
22.9137	2699.951		-39.3782	
22.96765	2697.655		-39.40725	
23.0216	2695.385		-39.43732	
23.07555	2693.144		-39.46801	
23.1295	2690.934		-39.49896	
23.18345	2688.753		-39.52976	
23.2374	2686.596		-39.56005	
23.29135	2684.453		-39.58947	
23.34529	2682.315		-39.61766	
23.39924	2680.174		-39.64425	
23.45319	2678.027		-39.66886	
23.50714	2675.87		-39.69107	
23.56109	2673.703		-39.71048	
23.61504	2671.527		-39.72668	
23.66899	2669.337		-39.73928	
23.72294	2667.13		-39.74797	
23.77689	2664.908		-39.75246	
23.83084	2662.676		-39.75255	
23.88478	2660.439		-39.74809	
23.93873	2658.208		-39.73901	
23.99268	2655.991		-39.7253	
24.04663	2653.789		-39.70702	
24.10058	2651.603		-39.68434	
24.15453	2649.431		-39.65746	
24.20848	2647.272		-39.6267	
24.26243	2645.119		-39.59243	
24.31638	2642.965		-39.55507	
24.37033	2640.807		-39.51513	
24.42428	2638.639		-39.47311	
24.47823	2636.455		-39.42958	
24.53218	2634.253		-39.38511	
24.58612	2632.041		-39.34026	
24.64007	2629.824		-39.29557	
24.69402	2627.608		-39.25154	
24.74797	2625.394		-39.2086	
24.80192	2623.187		-39.1671	
24.85587	2620.997		-39.12731	
24.90982	2618.836		-39.08945	
24.96377	2616.719		-39.05366	
25.01772	2614.649		-39.02003	
25.07166	2612.62		-38.98862	
25.12561	2610.624		-38.95942	
25.17956	2608.656		-38.93238	
25.23351	2606.708		-38.90744	
25.28746	2604.768		-38.88448	
25.34141	2602.821		-38.86336	
25.39536	2600.858		-38.84394	
25.44931	2598.874		-38.8261	
25.50326	2596.867		-38.80971	
25.55721	2594.847		-38.79464	
25.61116	2592.821		-38.78082	
25.66511	2590.801		-38.76821	
25.71906	2588.791		-38.75679	
25.773	2586.793		-38.7466	
25.82695	2584.803		-38.73767	
25.8809	2582.818		-38.73006	
25.93485	2580.835		-38.72378	
25.9888	2578.853		-38.71887	
26.04275	2576.873		-38.71537	
26.0967	2574.898		-38.71328	
26.15065	2572.925		-38.71264	
26.2046	2570.942		-38.71343	
26.25854	2568.938		-38.71563	
26.31249	2566.907		-38.71918	
26.36644	2564.841		-38.72404	
26.42039	2562.738		-38.73015	
26.47434	2560.605		-38.73743	
26.52829	2558.454		-38.74582	
26.58224	2556.292		-38.75521	
26.63619	2554.125		-38.76552	
26.69014	2551.956		-38.77659	
26.74409	2549.78		-38.78828	
26.79804	2547.595		-38.80039	
26.85199	2545.401		-38.81268	
26.90594	2543.209		-38.82486	
26.95988	2541.029		-38.83664	
27.01383	2538.86		-38.84768	
27.06778	2536.698		-38.85765	
27.12173	2534.538		-38.86621	
27.17568	2532.378		-38.87299	
27.22963	2530.215		-38.87765	
27.28358	2528.052		-38.87983	
27.33753	2525.891		-38.87925	
27.39148	2523.731		-38.87567	
27.44543	2521.572		-38.86891	
27.49937	2519.411		-38.85883	
27.55332	2517.248		-38.84534	
27.60727	2515.084		-38.82837	
27.66122	2512.929		-38.80792	
27.71517	2510.788		-38.78403	
27.76912	2508.666		-38.75681	
27.82307	2506.564		-38.72641	
27.87702	2504.479		-38.693	
27.93097	2502.402		-38.65681	
27.98492	2500.327		-38.61804	
28.03887	2498.253		-38.57696	
28.09282	2496.181		-38.53383	
28.14676	2494.106		-38.48893	
28.20071	2492.026		-38.44255	
28.25466	2489.938		-38.39494	
28.30861	2487.838		-38.34639	
28.36256	2485.723		-38.29715	
28.41651	2483.595		-38.24755	
28.47046	2481.463		-38.1979	
28.52441	2479.333		-38.14853	
28.57836	2477.212		-38.09976	
28.63231	2475.099		-38.05191	
28.68625	2472.995		-38.00526	
28.7402	2470.899		-37.96006	
28.79415	2468.811		-37.91653	
28.8481	2466.732		-37.87482	
28.90205	2464.665		-37.83506	
28.956	2462.615		-37.79731	
29.00995	2460.584		-37.76162	
29.0639	2458.576		-37.72797	
29.11785	2456.593		-37.69632	
29.1718	2454.633		-37.66659	
29.22575	2452.695		-37.63867	
29.2797	2450.778		-37.61243	
29.33364	2448.877		-37.58776	
29.38759	2446.993		-37.56453	
29.44154	2445.127		-37.54263	
29.49549	2443.275		-37.52195	
29.54944	2441.43		-37.50234	
29.60339	2439.583		-37.48365	
29.65734	2437.728		-37.46569	
29.71129	2435.854		-37.44832	
29.76524	2433.955		-37.43139	
29.81919	2432.027		-37.41479	
29.87314	2430.068		-37.39842	
29.92708	2428.081		-37.38218	
29.98103	2426.072		-37.36595	
30.03498	2424.052		-37.34964	
30.08893	2422.03		-37.33315	
30.14288	2420.014		-37.31641	
30.19683	2418.006		-37.2994	
30.25078	2416.001		-37.28211	
30.30473	2413.989		-37.26455	
30.35868	2411.957		-37.24679	
30.41263	2409.9		-37.22894	
30.46658	2407.82		-37.21115	
30.52052	2405.723		-37.1936	
30.57447	2403.618		-37.17652	
30.62842	2401.509		-37.16011	
30.68237	2399.404		-37.14456	
30.73632	2397.305		-37.13005	
30.79027	2395.218		-37.1167	
30.84422	2393.144		-37.10465	
30.89817	2391.088		-37.09398	
30.95212	2389.048		-37.08474	
31.00607	2387.018		-37.07698	
31.06002	2384.995		-37.07069	
31.11396	2382.979		-37.06583	
31.16791	2380.966		-37.06235	
31.22186	2378.947		-37.06013	
31.27581	2376.913		-37.05903	
31.32976	2374.859		-37.05889	
31.38371	2372.784		-37.05952	
31.43766	2370.689		-37.0607	
31.49161	2368.581		-37.06221	
31.54556	2366.467		-37.06381	
31.59951	2364.355		-37.06527	
31.65346	2362.253		-37.06635	
31.70741	2360.165		-37.06683	
31.76135	2358.099		-37.06651	
31.8153	2356.063		-37.06521	
31.86925	2354.061		-37.06277	
31.9232	2352.091		-37.05906	
31.97715	2350.146		-37.05393	
32.0311	2348.221		-37.04731	
32.08505	2346.312		-37.03909	
32.139	2344.417		-37.02927	
32.19295	2342.537		-37.01787	
32.24689	2340.672		-37.00497	
32.30085	2338.819		-36.99072	
32.35479	2336.973		-36.97529	
32.40874	2335.129		-36.95894	
32.46269	2333.284		-36.94197	
32.51664	2331.44		-36.92471	
32.57059	2329.599		-36.90752	
32.62454	2327.762		-36.89079	
32.67849	2325.925		-36.87488	
32.73244	2324.08		-36.86014	
32.78639	2322.219		-36.84687	
32.84034	2320.338		-36.83536	
32.89429	2318.429		-36.82584	
32.94823	2316.48		-36.8185	
33.00218	2314.485		-36.81348	
33.05613	2312.442		-36.81086	
33.11008	2310.358		-36.81069	
33.16403	2308.237		-36.81292	
33.21798	2306.09		-36.81746	
33.27193	2303.934		-36.8242	
33.32588	2301.781		-36.83295	
33.37983	2299.634		-36.84348	
33.43378	2297.501		-36.85554	
33.48772	2295.39		-36.86883	
33.54168	2293.303		-36.88302	
33.59562	2291.24		-36.89775	
33.64957	2289.191		-36.91265	
33.70352	2287.15		-36.92731	
33.75747	2285.114		-36.94124	
33.81142	2283.081		-36.95398	
33.86537	2281.052		-36.96505	
33.91932	2279.03		-36.97397	
33.97327	2277.021		-36.98031	
34.02722	2275.032		-36.98368	
34.08117	2273.071		-36.98373	
34.13511	2271.14		-36.9802	
34.18906	2269.241		-36.97287	
34.24301	2267.374		-36.96163	
34.29696	2265.532		-36.94643	
34.35091	2263.701		-36.9273	
34.40486	2261.867		-36.90432	
34.45881	2260.015		-36.87766	
34.51276	2258.134		-36.84755	
34.56671	2256.217		-36.81425	
34.62066	2254.259		-36.7781	
34.67461	2252.252		-36.73942	
34.72855	2250.193		-36.6986	
34.78251	2248.089		-36.65599	
34.83645	2245.952		-36.61194	
34.8904	2243.796		-36.56681	
34.94435	2241.636		-36.52095	
34.9983	2239.482		-36.4747	
35.05225	2237.343		-36.42839	
35.1062	2235.218		-36.38233	
35.16015	2233.108		-36.33677	
35.2141	2231.015		-36.29196	
35.26805	2228.936		-36.24806	
35.32199	2226.866		-36.2052	
35.37594	2224.799		-36.16348	
35.42989	2222.74		-36.12294	
35.48384	2220.695		-36.08361	
35.53779	2218.671		-36.04547	
35.59174	2216.677		-36.0085	
35.64569	2214.719		-35.97265	
35.69964	2212.801		-35.93784	
35.75359	2210.922		-35.90396	
35.80754	2209.076		-35.87085	
35.86148	2207.258		-35.83834	
35.91544	2205.466		-35.80622	
35.96938	2203.693		-35.77428	
36.02333	2201.931		-35.74228	
36.07728	2200.173		-35.71003	
36.13123	2198.415		-35.67733	
36.18518	2196.652		-35.64401	
36.23913	2194.88		-35.60997	
36.29308	2193.102		-35.57514	
36.34703	2191.318		-35.53955	
36.40098	2189.527		-35.50329	
36.45493	2187.728		-35.46649	
36.50888	2185.914		-35.42934	
36.56282	2184.084		-35.39209	
36.61677	2182.24		-35.35497	
36.67072	2180.375		-35.31828	
36.72467	2178.484		-35.28228	
36.77862	2176.567		-35.24724	
36.83257	2174.625		-35.21341	
36.88652	2172.661		-35.18099	
36.94047	2170.682		-35.15019	
36.99442	2168.692		-35.12118	
37.04837	2166.696		-35.09409	
37.10231	2164.702		-35.06903	
37.15627	2162.717		-35.04605	
37.21021	2160.75		-35.02515	
37.26416	2158.808		-35.00631	
37.31811	2156.892		-34.98944	
37.37206	2154.997		-34.97444	
37.42601	2153.119		-34.96116	
37.47996	2151.249		-34.94943	
37.53391	2149.377		-34.93906	
37.58786	2147.496		-34.92985	
37.64181	2145.605		-34.92162	
37.69576	2143.706		-34.91416	
37.7497	2141.799		-34.90729	
37.80365	2139.889		-34.90084	
37.8576	2137.986		-34.89463	
37.91155	2136.095		-34.88851	
37.9655	2134.222		-34.88234	
38.01945	2132.363		-34.87598	
38.0734	2130.516		-34.86931	
38.12735	2128.674		-34.86217	
38.1813	2126.828		-34.85444	
38.23524	2124.97		-34.84598	
38.2892	2123.094		-34.83668	
38.34314	2121.202		-34.82647	
38.39709	2119.295		-34.81533	
38.45104	2117.376		-34.80326	
38.50499	2115.452		-34.79031	
38.55894	2113.528		-34.77654	
38.61289	2111.609		-34.76203	
38.66684	2109.695		-34.74689	
38.72079	2107.785		-34.73126	
38.77474	2105.878		-34.7153	
38.82869	2103.975		-34.69923	
38.88264	2102.079		-34.68328	
38.93658	2100.187		-34.66769	
38.99053	2098.3		-34.65269	
39.04448	2096.422		-34.63848	
39.09843	2094.557		-34.62525	
39.15238	2092.705		-34.61314	
39.20633	2090.865		-34.60227	
39.26028	2089.036		-34.59273	
39.31423	2087.216		-34.58456	
39.36818	2085.404		-34.57777	
39.42213	2083.601		-34.57235	
39.47607	2081.808		-34.56828	
39.53003	2080.026		-34.56553	
39.58397	2078.25		-34.56405	
39.63792	2076.473		-34.56378	
39.69187	2074.688		-34.56465	
39.74582	2072.888		-34.56657	
39.79977	2071.066		-34.56947	
39.85372	2069.221		-34.57326	
39.90767	2067.357		-34.57786	
39.96162	2065.483		-34.5832	
40.01557	2063.604		-34.58918	
40.06952	2061.725		-34.5957	
40.12347	2059.85		-34.60261	
40.17741	2057.983		-34.60975	
40.23136	2056.124		-34.61694	
40.28531	2054.271		-34.62399	
40.33926	2052.423		-34.63071	
40.39321	2050.574		-34.63685	
40.44716	2048.715		-34.64219	
40.50111	2046.842		-34.64647	
40.55506	2044.954		-34.6494	
40.609	2043.056		-34.65071	
40.66296	2041.152		-34.65011	
40.7169	2039.249		-34.64735	
40.77085	2037.353		-34.64223	
40.8248	2035.467		-34.63459	
40.87875	2033.587		-34.62436	
40.9327	2031.708		-34.61149	
40.98665	2029.828		-34.59599	
41.0406	2027.949		-34.57792	
41.09455	2026.077		-34.55733	
41.1485	2024.216		-34.53436	
41.20245	2022.375		-34.50911	
41.2564	2020.553		-34.48173	
41.31034	2018.744		-34.45236	
41.3643	2016.93		-34.42116	
41.41824	2015.094		-34.38829	
41.47219	2013.225		-34.35389	
41.52614	2011.321		-34.31812	
41.58009	2009.386		-34.28115	
41.63404	2007.424		-34.24318	
41.68799	2005.439		-34.20437	
41.74194	2003.438		-34.16491	
41.79589	2001.433		-34.12498	
41.84983	1999.434		-34.08476	
41.90379	1997.454		-34.0444	
41.95773	1995.498		-34.00406	
42.01168	1993.566		-33.96386	
42.06563	1991.655		-33.92387	
42.11958	1989.756		-33.88412	
42.17353	1987.861		-33.84464	
42.22748	1985.968		-33.80541	
42.28143	1984.079		-33.7664	
42.33538	1982.198		-33.72756	
42.38933	1980.327		-33.6888	
42.44328	1978.467		-33.65005	
42.49723	1976.615		-33.61118	
42.55117	1974.772		-33.57207	
42.60512	1972.948		-33.53263	
42.65907	1971.154		-33.49277	
42.71302	1969.403		-33.45246	
42.76697	1967.698		-33.41166	
42.82092	1966.036		-33.37039	
42.87487	1964.415		-33.32864	
42.92882	1962.827		-33.28646	
42.98277	1961.261		-33.24389	
43.03672	1959.698		-33.20102	
43.09066	1958.121		-33.15794	
43.14462	1956.519		-33.11477	
43.19856	1954.883		-33.07162	
43.25251	1953.215		-33.02863	
43.30646	1951.521		-32.98592	
43.36041	1949.803		-32.94363	
43.41436	1948.065		-32.90189	
43.46831	1946.312		-32.86082	
43.52226	1944.555		-32.8206	
43.57621	1942.798		-32.78137	
43.63016	1941.042		-32.74332	
43.6841	1939.28		-32.70663	
43.73806	1937.509		-32.67145	
43.792	1935.729		-32.63791	
43.84595	1933.937		-32.60609	
43.8999	1932.129		-32.57602	
43.95385	1930.305		-32.54766	
44.0078	1928.473		-32.52097	
44.06175	1926.633		-32.49586	
44.1157	1924.787		-32.47221	
44.16965	1922.937		-32.44987	
44.22359	1921.088		-32.42864	
44.27755	1919.244		-32.40833	
44.33149	1917.407		-32.38871	
44.38544	1915.586		-32.36953	
44.43939	1913.782		-32.35057	
44.49334	1911.995		-32.33154	
44.54729	1910.226		-32.31218	
44.60124	1908.48		-32.29227	
44.65519	1906.76		-32.27158	
44.70914	1905.064		-32.24997	
44.76309	1903.381		-32.22729	
44.81704	1901.702		-32.20346	
44.87099	1900.02		-32.1784	
44.92493	1898.335		-32.15204	
44.97889	1896.645		-32.12436	
45.03283	1894.946		-32.09536	
45.08678	1893.241		-32.06507	
45.14073	1891.525		-32.03357	
45.19468	1889.79		-32.00095	
45.24863	1888.032		-31.96731	
45.30258	1886.254		-31.93274	
45.35653	1884.459		-31.89734	
45.41048	1882.655		-31.86124	
45.46442	1880.846		-31.8246	
45.51838	1879.037		-31.78759	
45.57232	1877.231		-31.75041	
45.62627	1875.428		-31.71327	
45.68022	1873.63		-31.67641	
45.73417	1871.847		-31.64006	
45.78812	1870.086		-31.60445	
45.84207	1868.348		-31.56978	
45.89602	1866.628		-31.53623	
45.94997	1864.925		-31.50398	
46.00392	1863.238		-31.47321	
46.05787	1861.563		-31.4441	
46.11182	1859.898		-31.41679	
46.16576	1858.248		-31.39145	
46.21971	1856.617		-31.36819	
46.27366	1855		-31.34711	
46.32761	1853.397		-31.32828	
46.38156	1851.807		-31.3117	
46.43551	1850.231		-31.29738	
46.48946	1848.664		-31.28524	
46.54341	1847.099		-31.27524	
46.59736	1845.536		-31.26726	
46.65131	1843.975		-31.26122	
46.70525	1842.41		-31.25698	
46.7592	1840.833		-31.25445	
46.81315	1839.238		-31.25348	
46.8671	1837.626		-31.25395	
46.92105	1835.993		-31.25573	
46.975	1834.339		-31.25872	
47.02895	1832.671		-31.26279	
47.0829	1830.996		-31.26785	
47.13685	1829.316		-31.27382	
47.1908	1827.625		-31.28059	
47.24475	1825.922		-31.2881	
47.29869	1824.206		-31.29622	
47.35265	1822.482		-31.30483	
47.40659	1820.753		-31.31385	
47.46054	1819.024		-31.32315	
47.51449	1817.303		-31.33262	
47.56844	1815.594		-31.34212	
47.62239	1813.895		-31.35151	
47.67634	1812.208		-31.3606	
47.73029	1810.531		-31.36921	
47.78424	1808.864		-31.37714	
47.83818	1807.201		-31.38423	
47.89214	1805.541		-31.39035	
47.94608	1803.883		-31.39542	
48.00003	1802.223		-31.39938	
48.05398	1800.555		-31.40223	
48.10793	1798.875		-31.40395	
48.16188	1797.179		-31.4046	
48.21583	1795.466		-31.40421	
48.26978	1793.737		-31.40287	
48.32373	1791.992		-31.40064	
48.37768	1790.238		-31.39754	
48.43163	1788.479		-31.39361	
48.48558	1786.709		-31.38884	
48.53952	1784.928		-31.38319	
48.59348	1783.137		-31.37661	
48.64742	1781.341		-31.36901	
48.70137	1779.536		-31.36034	
48.75532	1777.723		-31.3505	
48.80927	1775.906		-31.3394	
48.86322	1774.093		-31.32698	
48.91717	1772.289		-31.3132	
48.97112	1770.497		-31.29803	
49.02507	1768.719		-31.2815	
49.07901	1766.956		-31.26361	
49.13297	1765.207		-31.24442	
49.18691	1763.471		-31.22401	
49.24086	1761.749		-31.2024	
49.29481	1760.037		-31.17965	
49.34876	1758.34		-31.15578	
49.40271	1756.659		-31.13087	
49.45666	1754.994		-31.10493	
49.51061	1753.345		-31.07803	
49.56456	1751.715		-31.05021	
49.61851	1750.104		-31.02153	
49.67245	1748.512		-30.99203	
49.72641	1746.938		-30.96176	
49.78035	1745.379		-30.93078	
49.8343	1743.833		-30.89918	
49.88825	1742.298		-30.86705	
49.9422	1740.766		-30.8345	
49.99615	1739.234		-30.80163	
50.0501	1737.696		-30.76856	
50.10405	1736.143		-30.73537	
50.158	1734.569		-30.70219	
50.21195	1732.968		-30.66913	
50.2659	1731.345		-30.63635	
50.31984	1729.702		-30.60399	
50.37379	1728.045		-30.57221	
50.42774	1726.377		-30.54114	
50.48169	1724.701		-30.51086	
50.53564	1723.016		-30.48143	
50.58959	1721.327		-30.45286	
50.64354	1719.641		-30.42513	
50.69749	1717.959		-30.39819	
50.75144	1716.275		-30.37198	
50.80539	1714.584		-30.34642	
50.85934	1712.886		-30.3214	
50.91328	1711.188		-30.29682	
50.96724	1709.497		-30.27258	
51.02118	1707.822		-30.24857	
51.07513	1706.17		-30.22467	
51.12908	1704.547		-30.2008	
51.18303	1702.953		-30.1769	
51.23698	1701.379		-30.15287	
51.29093	1699.814		-30.12868	
51.34488	1698.251		-30.10424	
51.39883	1696.68		-30.07955	
51.45277	1695.095		-30.05455	
51.50673	1693.494		-30.02924	
51.56067	1691.876		-30.00357	
51.61462	1690.243		-29.97753	
51.66857	1688.596		-29.95113	
51.72252	1686.939		-29.92439	
51.77647	1685.283		-29.89737	
51.83042	1683.64		-29.87017	
51.88437	1682.016		-29.8429	
51.93832	1680.411		-29.81569	
51.99227	1678.822		-29.78867	
52.04622	1677.238		-29.76198	
52.10017	1675.647		-29.73576	
52.15411	1674.035		-29.71016	
52.20807	1672.39		-29.68529	
52.26201	1670.707		-29.66126	
52.31596	1668.988		-29.63815	
52.36991	1667.24		-29.61603	
52.42386	1665.475		-29.59493	
52.47781	1663.705		-29.57483	
52.53176	1661.948		-29.55572	
52.58571	1660.224		-29.53755	
52.63966	1658.551		-29.52024	
52.6936	1656.937		-29.5037	
52.74755	1655.382		-29.48782	
52.8015	1653.878		-29.47247	
52.85545	1652.412		-29.45749	
52.9094	1650.967		-29.44268	
52.96335	1649.527		-29.42781	
53.0173	1648.083		-29.41267	
53.07125	1646.626		-29.39701	
53.1252	1645.153		-29.38063	
53.17915	1643.661		-29.36339	
53.2331	1642.154		-29.34516	
53.28704	1640.638		-29.32587	
53.341	1639.123		-29.30552	
53.39494	1637.617		-29.28417	
53.44889	1636.126		-29.26192	
53.50284	1634.653		-29.23891	
53.55679	1633.194		-29.21527	
53.61074	1631.74		-29.19117	
53.66469	1630.28		-29.16676	
53.71864	1628.798		-29.14216	
53.77259	1627.285		-29.11752	
53.82654	1625.734		-29.09298	
53.88049	1624.146		-29.06867	
53.93443	1622.522		-29.04474	
53.98838	1620.867		-29.02134	
54.04233	1619.191		-28.99865	
54.09628	1617.507		-28.97686	
54.15023	1615.828		-28.9562	
54.20418	1614.164		-28.93683	
54.25813	1612.518		-28.91896	
54.31208	1610.884		-28.90273	
54.36603	1609.257		-28.88826	
54.41998	1607.629		-28.87561	
54.47393	1605.998		-28.86479	
54.52787	1604.365		-28.85575	
54.58183	1602.729		-28.8484	
54.63577	1601.09		-28.84256	
54.68972	1599.454		-28.83804	
54.74367	1597.826		-28.83456	
54.79762	1596.212		-28.83183	
54.85157	1594.615		-28.82949	
54.90552	1593.039		-28.82718	
54.95947	1591.484		-28.82453	
55.01342	1589.949		-28.82116	
55.06737	1588.432		-28.81672	
55.12132	1586.928		-28.81087	
55.17526	1585.427		-28.80331	
55.22921	1583.927		-28.79372	
55.28316	1582.424		-28.78187	
55.33711	1580.919		-28.76755	
55.39106	1579.411		-28.75065	
55.44501	1577.902		-28.73112	
55.49896	1576.396		-28.70897	
55.55291	1574.893		-28.68428	
55.60686	1573.396		-28.65717	
55.6608	1571.908		-28.6278	
55.71476	1570.426		-28.59633	
55.7687	1568.948		-28.56293	
55.82265	1567.467		-28.52777	
55.8766	1565.974		-28.49105	
55.93055	1564.464		-28.45297	
55.9845	1562.93		-28.41375	
56.03845	1561.377		-28.37361	
56.0924	1559.81		-28.33282	
