T[Â°C]	350nm [counts / mm]	S.D.	First derivative	S.D. of first derivative
19.99983	6907.207		-93.79132	
20.05382	6901.66		-93.89973	
20.10781	6896.14		-94.00712	
20.16179	6890.646		-94.11343	
20.21578	6885.174		-94.21864	
20.26977	6879.718		-94.32267	
20.32375	6874.275		-94.42548	
20.37774	6868.84		-94.52704	
20.43173	6863.412		-94.62728	
20.48571	6857.987		-94.72617	
20.5397	6852.564		-94.82365	
20.59369	6847.144		-94.91969	
20.64768	6841.728		-95.01424	
20.70166	6836.322		-95.10725	
20.75565	6830.935		-95.1987	
20.80964	6825.583		-95.28854	
20.86362	6820.3		-95.37676	
20.91761	6815.154		-95.46333	
20.9716	6810.268		-95.5482	
21.02559	6805.686		-95.63139	
21.07957	6801.131		-95.71288	
21.13356	6796.543		-95.79266	
21.18755	6791.877		-95.87074	
21.24153	6787.104		-95.94716	
21.29552	6782.205		-96.02193	
21.34951	6777.18		-96.09512	
21.4035	6772.047		-96.1668	
21.45748	6766.829		-96.23705	
21.51147	6761.55		-96.30596	
21.56546	6756.229		-96.37366	
21.61944	6750.881		-96.44029	
21.67343	6745.51		-96.506	
21.72742	6740.104		-96.57095	
21.7814	6734.65		-96.63531	
21.83539	6729.137		-96.69933	
21.88938	6723.557		-96.76318	
21.94337	6717.918		-96.82712	
21.99735	6712.224		-96.89141	
22.05134	6706.476		-96.95635	
22.10533	6700.684		-97.02226	
22.15932	6694.859		-97.08948	
22.2133	6689.03		-97.15833	
22.26729	6683.225		-97.22917	
22.32128	6677.464		-97.30223	
22.37526	6671.766		-97.3776	
22.42925	6666.137		-97.45506	
22.48324	6660.583		-97.53386	
22.53723	6655.117		-97.61259	
22.59121	6649.745		-97.68922	
22.6452	6644.463		-97.6982	
22.69919	6639.263		-97.70047	
22.75317	6634.127		-97.6955	
22.80716	6629.039		-97.68291	
22.86115	6623.985		-97.66241	
22.91513	6618.957		-97.63383	
22.96912	6613.951		-97.59717	
23.02311	6608.963		-97.55252	
23.0771	6603.99		-97.50014	
23.13108	6599.017		-97.44038	
23.18507	6594.03		-97.37373	
23.23906	6589.002		-97.30075	
23.29305	6583.906		-97.22206	
23.34703	6578.736		-97.13834	
23.40102	6573.495		-97.05032	
23.45501	6568.192		-96.95877	
23.50899	6562.852		-96.86452	
23.56298	6557.501		-96.76841	
23.61697	6552.165		-96.6714	
23.67095	6546.859		-96.57452	
23.72494	6541.585		-96.47883	
23.77893	6536.329		-96.38541	
23.83292	6531.072		-96.29526	
23.8869	6525.811		-96.20933	
23.94089	6520.547		-96.1285	
23.99488	6515.284		-96.05359	
24.04886	6510.025		-95.98531	
24.10285	6504.784		-95.92426	
24.15684	6499.564		-95.87093	
24.21083	6494.367		-95.82567	
24.26481	6489.196		-95.7887	
24.3188	6484.056		-95.76015	
24.37279	6478.949		-95.74005	
24.42677	6473.88		-95.72828	
24.48076	6468.848		-95.72462	
24.53475	6463.847		-95.72862	
24.58874	6458.868		-95.7397	
24.64272	6453.9		-95.75709	
24.69671	6448.931		-95.77989	
24.7507	6443.952		-95.80714	
24.80468	6438.952		-95.83775	
24.85867	6433.926		-95.87064	
24.91266	6428.87		-95.90472	
24.96665	6423.79		-95.93906	
25.02063	6418.702		-95.9728	
25.07462	6413.62		-96.00531	
25.12861	6408.559		-96.03612	
25.18259	6403.528		-96.0649	
25.23658	6398.523		-96.09142	
25.29057	6393.533		-96.11561	
25.34455	6388.538		-96.13745	
25.39854	6383.513		-96.15701	
25.45253	6378.435		-96.17435	
25.50652	6373.288		-96.18946	
25.5605	6368.066		-96.20223	
25.61449	6362.779		-96.21246	
25.66848	6357.442		-96.21977	
25.72247	6352.075		-96.22375	
25.77645	6346.698		-96.22389	
25.83044	6341.33		-96.2197	
25.88443	6335.982		-96.2107	
25.93841	6330.655		-96.19658	
25.9924	6325.347		-96.17707	
26.04639	6320.061		-96.15205	
26.10038	6314.796		-96.12148	
26.15436	6309.545		-96.08539	
26.20835	6304.286		-96.04384	
26.26234	6299		-95.99697	
26.31632	6293.671		-95.94496	
26.37031	6288.301		-95.88811	
26.4243	6282.898		-95.82677	
26.47828	6277.466		-95.76134	
26.53227	6272.016		-95.69225	
26.58626	6266.562		-95.61979	
26.64025	6261.121		-95.54423	
26.69423	6255.712		-95.46574	
26.74822	6250.355		-95.38443	
26.80221	6245.059		-95.30031	
26.8562	6239.818		-95.21336	
26.91018	6234.611		-95.12357	
26.96417	6229.425		-95.03088	
27.01816	6224.249		-94.9353	
27.07214	6219.08		-94.83688	
27.12613	6213.919		-94.73578	
27.18012	6208.765		-94.63226	
27.2341	6203.618		-94.52664	
27.28809	6198.469		-94.41937	
27.34208	6193.32		-94.31097	
27.39607	6188.181		-94.20206	
27.45005	6183.057		-94.09325	
27.50404	6177.951		-93.98518	
27.55803	6172.861		-93.87835	
27.61201	6167.784		-93.77318	
27.666	6162.712		-93.66988	
27.71999	6157.648		-93.5685	
27.77398	6152.595		-93.46897	
27.82796	6147.559		-93.37109	
27.88195	6142.545		-93.27463	
27.93594	6137.559		-93.17933	
27.98993	6132.606		-93.08499	
28.04391	6127.707		-92.99146	
28.0979	6122.882		-92.89867	
28.15189	6118.144		-92.80667	
28.20587	6113.49		-92.7156	
28.25986	6108.904		-92.62571	
28.31385	6104.367		-92.53738	
28.36783	6099.851		-92.45112	
28.42182	6095.329		-92.36753	
28.47581	6090.77		-92.28729	
28.5298	6086.147		-92.21112	
28.58378	6081.441		-92.13972	
28.63777	6076.646		-92.07372	
28.69176	6071.774		-92.01369	
28.74574	6066.85		-91.96008	
28.79973	6061.893		-91.91321	
28.85372	6056.92		-91.87333	
28.90771	6051.939		-91.84055	
28.96169	6046.95		-91.81482	
29.01568	6041.947		-91.79598	
29.06967	6036.932		-91.78372	
29.12365	6031.904		-91.77766	
29.17764	6026.865		-91.77733	
29.23163	6021.811		-91.78223	
29.28562	6016.729		-91.79179	
29.3396	6011.612		-91.80537	
29.39359	6006.458		-91.8223	
29.44758	6001.269		-91.84188	
29.50156	5996.055		-91.86342	
29.55555	5990.826		-91.8863	
29.60954	5985.598		-91.90994	
29.66352	5980.382		-91.93378	
29.71751	5975.194		-91.95724	
29.7715	5970.054		-91.97971	
29.82549	5964.985		-92.00052	
29.87947	5960		-92.019	
29.93346	5955.095		-92.03445	
29.98745	5950.252		-92.04613	
30.04144	5945.452		-92.05332	
30.09542	5940.675		-92.05534	
30.14941	5935.91		-92.0516	
30.2034	5931.149		-92.04159	
30.25738	5926.392		-92.02502	
30.31137	5921.635		-92.00176	
30.36536	5916.871		-91.97192	
30.41935	5912.083		-91.93576	
30.47333	5907.254		-91.89378	
30.52732	5902.361		-91.84664	
30.58131	5897.386		-91.79514	
30.63529	5892.32		-91.74022	
30.68928	5887.172		-91.68286	
30.74327	5881.963		-91.62411	
30.79725	5876.719		-91.56496	
30.85124	5871.467		-91.5064	
30.90523	5866.231		-91.44929	
30.95922	5861.026		-91.39436	
31.0132	5855.858		-91.34222	
31.06719	5850.731		-91.29333	
31.12118	5845.647		-91.24804	
31.17517	5840.608		-91.20655	
31.22915	5835.607		-91.16899	
31.28314	5830.629		-91.13536	
31.33713	5825.663		-91.10552	
31.39111	5820.695		-91.07922	
31.4451	5815.712		-91.05616	
31.49909	5810.717		-91.03599	
31.55307	5805.724		-91.01842	
31.60706	5800.744		-91.00321	
31.66105	5795.788		-90.99014	
31.71504	5790.861		-90.97903	
31.76902	5785.977		-90.9697	
31.82301	5781.153		-90.96195	
31.877	5776.404		-90.95561	
31.93098	5771.744		-90.95049	
31.98497	5767.182		-90.94638	
32.03896	5762.705		-90.94302	
32.09295	5758.279		-90.94011	
32.14693	5753.858		-90.93731	
32.20092	5749.406		-90.93429	
32.25491	5744.896		-90.93074	
32.3089	5740.31		-90.92645	
32.36288	5735.644		-90.92128	
32.41687	5730.905		-90.91524	
32.47086	5726.114		-90.90841	
32.52484	5721.282		-90.90105	
32.57883	5716.419		-90.89352	
32.63282	5711.534		-90.88631	
32.68681	5706.637		-90.88004	
32.74079	5701.736		-90.87535	
32.79478	5696.831		-90.8729	
32.84877	5691.908		-90.8732	
32.90275	5686.958		-90.87663	
32.95674	5681.963		-90.88338	
33.01073	5676.91		-90.8935	
33.06471	5671.794		-90.90681	
33.1187	5666.628		-90.923	
33.17269	5661.429		-90.9416	
33.22668	5656.206		-90.96207	
33.28066	5650.973		-90.98373	
33.33465	5645.746		-91.00586	
33.38864	5640.535		-91.02769	
33.44262	5635.363		-91.04842	
33.49661	5630.25		-91.06725	
33.5506	5625.21		-91.08343	
33.60458	5620.249		-91.09627	
33.65857	5615.361		-91.10516	
33.71256	5610.533		-91.10952	
33.76655	5605.74		-91.1089	
33.82053	5600.956		-91.10291	
33.87452	5596.159		-91.09121	
33.92851	5591.339		-91.07358	
33.98249	5586.493		-91.04979	
34.03648	5581.621		-91.01968	
34.09047	5576.724		-90.98309	
34.14445	5571.807		-90.93987	
34.19844	5566.877		-90.88995	
34.25243	5561.948		-90.83324	
34.30642	5557.026		-90.76981	
34.3604	5552.113		-90.69981	
34.41439	5547.199		-90.62346	
34.46838	5542.271		-90.54105	
34.52237	5537.316		-90.45291	
34.57635	5532.333		-90.35942	
34.63034	5527.326		-90.26102	
34.68433	5522.302		-90.15819	
34.73832	5517.267		-90.05147	
34.7923	5512.223		-89.94142	
34.84629	5507.173		-89.8286	
34.90028	5502.12		-89.71352	
34.95426	5497.068		-89.5967	
35.00825	5492.021		-89.47858	
35.06224	5486.985		-89.3596	
35.11623	5481.972		-89.24008	
35.17021	5476.995		-89.12038	
35.2242	5472.057		-89.00079	
35.27819	5467.161		-88.88159	
35.33217	5462.31		-88.76302	
35.38616	5457.516		-88.64518	
35.44015	5452.795		-88.52816	
35.49413	5448.147		-88.41197	
35.54812	5443.562		-88.2966	
35.60211	5439.027		-88.18204	
35.6561	5434.524		-88.06831	
35.71008	5430.04		-87.95553	
35.76407	5425.551		-87.84385	
35.81806	5421.048		-87.73347	
35.87204	5416.533		-87.62469	
35.92603	5412.006		-87.51778	
35.98002	5407.468		-87.41312	
36.034	5402.919		-87.31099	
36.08799	5398.351		-87.21172	
36.14198	5393.754		-87.11558	
36.19597	5389.132		-87.0228	
36.24995	5384.49		-86.9336	
36.30394	5379.831		-86.84817	
36.35793	5375.146		-86.76661	
36.41191	5370.428		-86.68903	
36.4659	5365.68		-86.61539	
36.51989	5360.909		-86.54562	
36.57388	5356.12		-86.47956	
36.62786	5351.329		-86.41695	
36.68185	5346.548		-86.35757	
36.73584	5341.788		-86.30112	
36.78983	5337.051		-86.24739	
36.84381	5332.333		-86.19615	
36.8978	5327.625		-86.14719	
36.95179	5322.929		-86.10035	
37.00578	5318.255		-86.05549	
37.05976	5313.628		-86.01254	
37.11375	5309.062		-85.97142	
37.16774	5304.557		-85.93214	
37.22172	5300.098		-85.89466	
37.27571	5295.669		-85.859	
37.3297	5291.259		-85.8251	
37.38369	5286.864		-85.79291	
37.43767	5282.472		-85.76231	
37.49166	5278.07		-85.7332	
37.54565	5273.645		-85.70541	
37.59963	5269.19		-85.67883	
37.65362	5264.701		-85.65334	
37.70761	5260.172		-85.62885	
37.76159	5255.587		-85.60529	
37.81558	5250.937		-85.58263	
37.86957	5246.215		-85.56091	
37.92356	5241.429		-85.54025	
37.97754	5236.6		-85.52082	
38.03153	5231.747		-85.50283	
38.08552	5226.888		-85.48653	
38.1395	5222.042		-85.47215	
38.19349	5217.223		-85.45991	
38.24748	5212.433		-85.44994	
38.30146	5207.655		-85.44231	
38.35545	5202.877		-85.43696	
38.40944	5198.092		-85.43368	
38.46343	5193.303		-85.43211	
38.51741	5188.509		-85.43178	
38.5714	5183.719		-85.43205	
38.62539	5178.947		-85.43221	
38.67937	5174.208		-85.43147	
38.73336	5169.522		-85.42905	
38.78735	5164.908		-85.42418	
38.84134	5160.37		-85.4161	
38.89532	5155.91		-85.40415	
38.94931	5151.524		-85.38776	
39.0033	5147.205		-85.36649	
39.05729	5142.934		-85.34002	
39.11127	5138.685		-85.30817	
39.16526	5134.428		-85.27093	
39.21925	5130.14		-85.22836	
39.27324	5125.799		-85.18064	
39.32722	5121.389		-85.12802	
39.38121	5116.901		-85.07079	
39.4352	5112.338		-85.00929	
39.48918	5107.708		-84.94396	
39.54317	5103.026		-84.87525	
39.59716	5098.325		-84.80371	
39.65114	5093.635		-84.72987	
39.70513	5088.982		-84.65427	
39.75912	5084.373		-84.57744	
39.81311	5079.798		-84.49992	
39.86709	5075.239		-84.42229	
39.92108	5070.669		-84.34511	
39.97507	5066.064		-84.26896	
40.02905	5061.409		-84.1944	
40.08304	5056.7		-84.12198	
40.13703	5051.939		-84.05219	
40.19101	5047.132		-83.98546	
40.245	5042.293		-83.92209	
40.29899	5037.447		-83.86231	
40.35298	5032.614		-83.80624	
40.40696	5027.811		-83.75389	
40.46095	5023.047		-83.70523	
40.51494	5018.332		-83.66007	
40.56892	5013.674		-83.61816	
40.62291	5009.065		-83.57905	
40.6769	5004.507		-83.54222	
40.73088	4999.998		-83.50703	
40.78487	4995.535		-83.47273	
40.83886	4991.104		-83.43853	
40.89285	4986.695		-83.40365	
40.94683	4982.305		-83.36742	
41.00082	4977.936		-83.32928	
41.05481	4973.593		-83.28884	
41.1088	4969.285		-83.2459	
41.16278	4965.02		-83.20046	
41.21677	4960.803		-83.15271	
41.27076	4956.627		-83.10297	
41.32475	4952.482		-83.05173	
41.37873	4948.35		-82.99955	
41.43272	4944.209		-82.94704	
41.48671	4940.034		-82.89488	
41.54069	4935.807		-82.84378	
41.59468	4931.518		-82.7944	
41.64867	4927.166		-82.74733	
41.70266	4922.746		-82.70314	
41.75664	4918.258		-82.66229	
41.81063	4913.708		-82.62518	
41.86462	4909.114		-82.59209	
41.9186	4904.5		-82.56322	
41.97259	4899.893		-82.53873	
42.02658	4895.309		-82.51858	
42.08056	4890.755		-82.50272	
42.13455	4886.221		-82.49098	
42.18854	4881.696		-82.48313	
42.24253	4877.168		-82.47884	
42.29651	4872.628		-82.47768	
42.3505	4868.07		-82.47918	
42.40449	4863.493		-82.4828	
42.45847	4858.904		-82.48793	
42.51246	4854.316		-82.49398	
42.56645	4849.734		-82.50027	
42.62043	4845.163		-82.50616	
42.67442	4840.612		-82.51098	
42.72841	4836.102		-82.51403	
42.7824	4831.651		-82.51464	
42.83638	4827.277		-82.51217	
42.89037	4822.98		-82.50599	
42.94436	4818.749		-82.49554	
42.99834	4814.564		-82.48028	
43.05233	4810.403		-82.4598	
43.10632	4806.249		-82.43378	
43.16031	4802.082		-82.40202	
43.21429	4797.878		-82.36444	
43.26828	4793.621		-82.32114	
43.32227	4789.303		-82.27238	
43.37626	4784.921		-82.21857	
43.43024	4780.472		-82.16019	
43.48423	4775.956		-82.09787	
43.53822	4771.379		-82.03233	
43.59221	4766.753		-81.96429	
43.64619	4762.088		-81.89452	
43.70018	4757.393		-81.82368	
43.75417	4752.674		-81.75243	
43.80815	4747.936		-81.6813	
43.86214	4743.186		-81.6107	
43.91613	4738.429		-81.54092	
43.97011	4733.681		-81.47208	
44.0241	4728.949		-81.40417	
44.07809	4724.236		-81.33701	
44.13208	4719.546		-81.27027	
44.18606	4714.89		-81.20359	
44.24005	4710.275		-81.13647	
44.29404	4705.703		-81.06843	
44.34802	4701.174		-80.99897	
44.40201	4696.691		-80.9276	
44.456	4692.257		-80.85388	
44.50998	4687.881		-80.77738	
44.56397	4683.572		-80.69775	
44.61796	4679.344		-80.61471	
44.67195	4675.198		-80.52805	
44.72593	4671.123		-80.43772	
44.77992	4667.104		-80.3437	
44.83391	4663.126		-80.24612	
44.88789	4659.176		-80.14517	
44.94188	4655.245		-80.0411	
44.99587	4651.32		-79.93423	
45.04985	4647.396		-79.82491	
45.10384	4643.465		-79.71355	
45.15783	4639.506		-79.60064	
45.21182	4635.487		-79.48669	
45.2658	4631.388		-79.37233	
45.31979	4627.196		-79.25826	
45.37378	4622.91		-79.14525	
45.42776	4618.538		-79.03411	
45.48175	4614.103		-78.92567	
45.53574	4609.629		-78.82084	
45.58973	4605.135		-78.72054	
45.64371	4600.639		-78.62569	
45.6977	4596.16		-78.53721	
45.75169	4591.708		-78.45596	
45.80568	4587.292		-78.38271	
45.85966	4582.904		-78.31815	
45.91365	4578.538		-78.26281	
45.96764	4574.193		-78.21701	
46.02163	4569.869		-78.18085	
46.07561	4565.559		-78.15417	
46.1296	4561.26		-78.13658	
46.18359	4556.977		-78.12747	
46.23757	4552.714		-78.12605	
46.29156	4548.476		-78.13142	
46.34555	4544.271		-78.14256	
46.39953	4540.099		-78.15842	
46.45352	4535.956		-78.17796	
46.50751	4531.844		-78.20016	
46.5615	4527.771		-78.22405	
46.61548	4523.75		-78.24875	
46.66947	4519.792		-78.27347	
46.72346	4515.896		-78.29753	
46.77744	4512.046		-78.32031	
46.83143	4508.212		-78.34124	
46.88542	4504.363		-78.35979	
46.9394	4500.467		-78.37549	
46.99339	4496.507		-78.38794	
47.04738	4492.478		-78.39685	
47.10137	4488.381		-78.40202	
47.15535	4484.224		-78.40334	
47.20934	4480.018		-78.40079	
47.26333	4475.779		-78.39445	
47.31731	4471.521		-78.38446	
47.3713	4467.248		-78.37103	
47.42529	4462.967		-78.35441	
47.47927	4458.679		-78.33491	
47.53326	4454.381		-78.31284	
47.58725	4450.069		-78.28854	
47.64124	4445.734		-78.26233	
47.69522	4441.371		-78.23449	
47.74921	4436.979		-78.20526	
47.8032	4432.555		-78.17487	
47.85719	4428.094		-78.14347	
47.91117	4423.599		-78.11118	
47.96516	4419.081		-78.07803	
48.01915	4414.556		-78.04395	
48.07314	4410.035		-78.00877	
48.12712	4405.535		-77.97231	
48.18111	4401.066		-77.93429	
48.2351	4396.644		-77.89445	
48.28908	4392.275		-77.85249	
48.34307	4387.958		-77.80807	
48.39706	4383.683		-77.76085	
48.45105	4379.44		-77.71041	
48.50503	4375.219		-77.65641	
48.55902	4371.014		-77.59844	
48.61301	4366.826		-77.53619	
48.66699	4362.659		-77.46941	
48.72098	4358.511		-77.39793	
48.77497	4354.382		-77.32169	
48.82895	4350.266		-77.24063	
48.88294	4346.159		-77.15482	
48.93693	4342.057		-77.06441	
48.99092	4337.958		-76.96962	
49.0449	4333.85		-76.87085	
49.09889	4329.726		-76.76857	
49.15288	4325.575		-76.66336	
49.20686	4321.387		-76.55589	
49.26085	4317.154		-76.44678	
49.31484	4312.889		-76.33674	
49.36882	4308.613		-76.22637	
49.42281	4304.36		-76.1163	
49.4768	4300.157		-76.00716	
49.53079	4296.018		-75.89952	
49.58477	4291.949		-75.79395	
49.63876	4287.948		-75.69096	
49.69275	4284.003		-75.59095	
49.74673	4280.098		-75.49427	
49.80072	4276.206		-75.40113	
49.85471	4272.308		-75.31164	
49.9087	4268.39		-75.22578	
49.96268	4264.442		-75.14339	
50.01667	4260.462		-75.06429	
50.07066	4256.45		-74.98821	
50.12465	4252.413		-74.91487	
50.17863	4248.37		-74.84402	
50.23262	4244.34		-74.77541	
50.28661	4240.343		-74.70888	
50.3406	4236.388		-74.64424	
50.39458	4232.48		-74.58136	
50.44857	4228.62		-74.52011	
50.50256	4224.801		-74.46036	
50.55654	4221.02		-74.40202	
50.61053	4217.266		-74.34496	
50.66452	4213.52		-74.28909	
50.7185	4209.753		-74.2343	
50.77249	4205.932		-74.18043	
50.82648	4202.038		-74.12736	
50.88047	4198.062		-74.07494	
50.93445	4194.011		-74.02309	
50.98844	4189.907		-73.97173	
51.04243	4185.784		-73.92087	
51.09641	4181.682		-73.87061	
51.1504	4177.627		-73.82111	
51.20439	4173.62		-73.77261	
51.25837	4169.644		-73.72533	
51.31236	4165.681		-73.67948	
51.36635	4161.72		-73.63531	
51.42034	4157.745		-73.59302	
51.47432	4153.742		-73.5528	
51.52831	4149.698		-73.51482	
51.5823	4145.608		-73.4792	
51.63628	4141.47		-73.44608	
51.69027	4137.287		-73.4155	
51.74426	4133.066		-73.38742	
51.79824	4128.824		-73.36179	
51.85223	4124.579		-73.33852	
51.90622	4120.35		-73.31748	
51.96021	4116.156		-73.29852	
52.01419	4112.011		-73.28143	
52.06818	4107.924		-73.26592	
52.12217	4103.896		-73.25168	
52.17616	4099.923		-73.23831	
52.23014	4095.993		-73.2254	
52.28413	4092.098		-73.21249	
52.33812	4088.224		-73.19913	
52.39211	4084.362		-73.1849	
52.44609	4080.505		-73.16941	
52.50008	4076.656		-73.15237	
52.55407	4072.822		-73.13354	
52.60805	4069.013		-73.11275	
52.66204	4065.231		-73.08994	
52.71603	4061.479		-73.065	
52.77002	4057.746		-73.03794	
52.824	4054.024		-73.00877	
52.87799	4050.295		-72.97756	
52.93198	4046.546		-72.9444	
52.98596	4042.761		-72.90942	
53.03995	4038.936		-72.87284	
53.09394	4035.072		-72.83485	
53.14792	4031.168		-72.79572	
53.20191	4027.224		-72.75567	
53.2559	4023.252		-72.71493	
53.30989	4019.274		-72.67368	
53.36387	4015.303		-72.63213	
53.41786	4011.345		-72.59048	
53.47185	4007.407		-72.54897	
53.52583	4003.495		-72.50782	
53.57982	3999.613		-72.46731	
53.63381	3995.755		-72.42768	
53.6878	3991.903		-72.38914	
53.74178	3988.041		-72.35179	
53.79577	3984.159		-72.31571	
53.84976	3980.245		-72.28096	
53.90374	3976.294		-72.24758	
53.95773	3972.308		-72.21561	
54.01172	3968.301		-72.18508	
54.0657	3964.288		-72.15594	
54.11969	3960.281		-72.1281	
54.17368	3956.285		-72.1014	
54.22767	3952.31		-72.07563	
54.28165	3948.361		-72.05053	
54.33564	3944.44		-72.02578	
54.38963	3940.538		-72.00107	
54.44361	3936.643		-71.97604	
54.4976	3932.746		-71.95038	
54.55159	3928.838		-71.92375	
54.60558	3924.916		-71.89584	
54.65956	3920.979		-71.86634	
54.71355	3917.03		-71.83497	
54.76754	3913.068		-71.80148	
54.82153	3909.096		-71.76572	
54.87551	3905.119		-71.72753	
54.9295	3901.144		-71.68688	
54.98349	3897.181		-71.64377	
55.03748	3893.241		-71.59824	
55.09146	3889.328		-71.55035	
55.14545	3885.444		-71.50014	
55.19944	3881.593		-71.44763	
55.25342	3877.782		-71.39281	
55.30741	3874.009		-71.33557	
55.3614	3870.263		-71.27586	
55.41538	3866.53		-71.21358	
55.46937	3862.798		-71.14866	
55.52336	3859.058		-71.08106	
55.57735	3855.301		-71.01078	
55.63133	3851.52		-70.93785	
55.68532	3847.713		-70.8623	
55.73931	3843.877		-70.78419	
55.79329	3840.017		-70.70361	
55.84728	3836.143		-70.62063	
55.90127	3832.268		-70.53533	
55.95525	3828.409		-70.44778	
56.00924	3824.572		-70.35802	
56.06323	3820.756		-70.26613	
56.11722	3816.95		-70.17212	
56.1712	3813.136		-70.07597	
