T[Â°C]	350nm [counts / mm]	S.D.
19.99983	6926.145	
19.9999	6919.998	
20.00316	6908.076	
20.00546	6893.866	
20.01859	6917.07	
20.02365	6918.304	
20.0452	6912.539	
20.05174	6920.203	
20.0799	6918.9	
20.08828	6900.808	
20.12251	6910.99	
20.13281	6894.763	
20.1726	6898.39	
20.18394	6877.125	
20.23122	6865.409	
20.24482	6876.269	
20.29627	6866.83	
20.3126	6869.208	
20.37058	6855.171	
20.38704	6869.601	
20.4507	6851.444	
20.46879	6841.257	
20.53478	6849.446	
20.55272	6832.265	
20.62677	6849.997	
20.64731	6830.393	
20.72315	6851.192	
20.74436	6839.037	
20.82239	6821.01	
20.84341	6825.649	
20.92566	6814.362	
20.9485	6805.851	
21.03259	6815.131	
21.05505	6789.56	
21.14065	6806.001	
21.16424	6781.422	
21.25003	6773.674	
21.27277	6785.958	
21.35899	6769.824	
21.38275	6771.452	
21.47118	6786.276	
21.49459	6755.807	
21.58103	6761.105	
21.60364	6764.167	
21.68849	6752.206	
21.71212	6748.807	
21.7979	6748.329	
21.82088	6727.607	
21.90804	6728.572	
21.9308	6715.702	
22.01782	6704.688	
22.04121	6698.147	
22.1259	6697.532	
22.15083	6679.87	
22.2351	6700.798	
22.25876	6695.075	
22.34403	6665.59	
22.36755	6669.328	
22.45558	6667.406	
22.47876	6655.589	
22.56503	6650.554	
22.58799	6640.687	
22.67339	6644.105	
22.69674	6625.484	
22.78401	6642.916	
22.8075	6639.646	
22.89198	6619.164	
22.9151	6617.789	
23.00323	6612.883	
23.02754	6605.817	
23.11257	6604.861	
23.13561	6590.705	
23.22029	6596.187	
23.2432	6587.604	
23.33041	6578.582	
23.35346	6577.377	
23.4402	6579.732	
23.46362	6569.005	
23.55128	6567.388	
23.57434	6554.482	
23.65831	6556.209	
23.68148	6539.551	
23.76953	6542.026	
23.79236	6544.081	
23.87708	6524.933	
23.89998	6525.554	
23.98582	6508.191	
24.00959	6507.095	
24.09733	6503.216	
24.12031	6478.733	
24.20537	6496.347	
24.22838	6491.333	
24.31593	6481.311	
24.33884	6496.068	
24.42617	6477.409	
24.44933	6476.453	
24.53533	6464.916	
24.55807	6454.121	
24.64441	6448.493	
24.66812	6440.135	
24.75364	6454.487	
24.77775	6447.262	
24.86404	6435.129	
24.88678	6431.842	
24.97322	6433.212	
24.99652	6415.675	
25.08208	6409.297	
25.10566	6402.103	
25.19358	6406.35	
25.21636	6388.493	
25.30037	6401.282	
25.32462	6396.877	
25.41117	6370.82	
25.4349	6383.842	
25.52256	6366.146	
25.54593	6358.035	
25.63051	6366.563	
25.65329	6361.588	
25.73952	6353.878	
25.76288	6346.6	
25.8494	6343.916	
25.87329	6355.572	
25.95835	6329.146	
25.98133	6333.971	
26.06819	6319.786	
26.09165	6315.923	
26.17678	6310.518	
26.20002	6294.254	
26.2868	6305.25	
26.31065	6280.111	
26.39693	6280.053	
26.41924	6273.701	
26.5064	6266.881	
26.52946	6269.412	
26.61675	6263.979	
26.63963	6274.833	
26.72456	6254.236	
26.74704	6249.444	
26.83249	6245.885	
26.8564	6243.458	
26.9458	6237.64	
26.96897	6234.091	
27.05309	6218.503	
27.07639	6210.099	
27.16199	6207.762	
27.18508	6216.193	
27.27415	6205.459	
27.29742	6192.679	
27.38068	6177.241	
27.40662	6185.452	
27.49146	6166.228	
27.51485	6182.375	
27.6011	6168.053	
27.62455	6170.306	
27.71089	6154.91	
27.73453	6138.569	
27.81955	6153.082	
27.84283	6145.627	
27.93056	6145.06	
27.95373	6153.561	
28.03907	6132.848	
28.06218	6131.502	
28.15152	6111.763	
28.17517	6118.099	
28.25987	6112.111	
28.28215	6098.063	
28.36717	6093.729	
28.3907	6090.537	
28.47816	6083.936	
28.50151	6089.054	
28.58701	6076.318	
28.60963	6072.166	
28.69611	6067.928	
28.71927	6065.461	
28.80605	6062.89	
28.82887	6053.532	
28.91431	6064.391	
28.93753	6068.047	
29.02408	6057.347	
29.04775	6058.027	
29.13502	6036.701	
29.15774	6034.918	
29.24293	6013.078	
29.26635	6017.673	
29.35209	6000.232	
29.3754	6003.461	
29.46232	5988.909	
29.48537	5998.819	
29.57179	5980.934	
29.59523	5988.54	
29.6814	5965.209	
29.70435	5979.3	
29.78924	5959.458	
29.81239	5967.344	
29.89912	5950.222	
29.92221	5961.323	
30.00941	5949.355	
30.03231	5951.791	
30.11783	5953.491	
30.14067	5934.378	
30.22798	5926.385	
30.25125	5933.852	
30.33682	5919.415	
30.35983	5922.612	
30.44585	5909.926	
30.46934	5907.467	
30.55597	5882.449	
30.57924	5891.687	
30.66593	5888.44	
30.68924	5892.506	
30.77555	5873.482	
30.79875	5872.628	
30.88488	5874.043	
30.90802	5866.837	
30.99552	5859.153	
31.01894	5866.625	
31.10313	5842.465	
31.12666	5860.474	
31.21317	5834.545	
31.2362	5832.143	
31.3224	5824.016	
31.34524	5818.713	
31.43165	5814.139	
31.45448	5797.298	
31.54056	5804.917	
31.56316	5805.821	
31.65088	5797.225	
31.67421	5798.877	
31.76033	5783.713	
31.78379	5785.35	
31.87032	5772.954	
31.89345	5778.877	
31.9802	5771.676	
32.00306	5768.847	
32.0879	5754.323	
32.11177	5752.897	
32.19885	5757.049	
32.22164	5750.388	
32.30797	5729.736	
32.33088	5743.546	
32.41724	5730.868	
32.44125	5724.618	
32.52636	5720.931	
32.54964	5716.713	
32.63614	5710.467	
32.65897	5721.893	
32.74508	5703.071	
32.76823	5717.019	
32.85529	5702.957	
32.87938	5702.593	
32.96538	5667.705	
32.98944	5668.772	
33.07376	5669.235	
33.09659	5666.612	
33.18333	5654.752	
33.20721	5660.721	
33.29441	5646.14	
33.31745	5659.329	
33.40229	5631.854	
33.42514	5638.976	
33.51202	5632.355	
33.53492	5633.813	
33.62197	5619.533	
33.64524	5609.196	
33.73152	5595.376	
33.75453	5608.713	
33.83894	5589.494	
33.8623	5596.36	
33.9505	5578.309	
33.97622	5600.274	
34.06027	5580.823	
34.08318	5581.274	
34.16745	5560.263	
34.1909	5562.824	
34.27768	5564.733	
34.30186	5570.616	
34.38954	5544.956	
34.41228	5549.25	
34.4971	5538.204	
34.52024	5542.067	
34.60605	5531.219	
34.62941	5527.336	
34.71427	5520.513	
34.74	5523.898	
34.82642	5493.36	
34.8494	5503.663	
34.93448	5477.92	
34.95786	5505.958	
35.04296	5469.559	
35.06567	5494.158	
35.15232	5480.711	
35.17621	5475.46	
35.2628	5473.572	
35.28553	5453.125	
35.37149	5458.727	
35.39503	5467.668	
35.48263	5451.055	
35.50597	5450.546	
35.59191	5432.387	
35.61459	5435.631	
35.70055	5431.544	
35.7238	5420.411	
35.80956	5420.582	
35.83254	5422.791	
35.92057	5413.149	
35.94408	5412.267	
36.02814	5393.53	
36.05193	5396.657	
36.13786	5393.024	
36.16127	5394.853	
36.24916	5392.626	
36.27252	5407.468	
36.35638	5368.843	
36.37922	5380.272	
36.46697	5369.348	
36.49005	5364.042	
36.5768	5359.913	
36.60005	5350.721	
36.68636	5339.618	
36.70922	5356.796	
36.79538	5328.357	
36.81836	5345.281	
36.90484	5326.896	
36.92797	5313.952	
37.01467	5311.638	
37.03706	5325.022	
37.1235	5299.451	
37.14716	5302.373	
37.2349	5278.403	
37.25855	5304.662	
37.34254	5294.059	
37.36558	5293.275	
37.45181	5272.549	
37.47489	5291.603	
37.5612	5277.485	
37.58408	5274.01	
37.67173	5263.378	
37.69709	5262.706	
37.7812	5244.724	
37.80479	5259.335	
37.89128	5245.818	
37.91399	5254.877	
37.99933	5240.31	
38.0228	5230.618	
38.10871	5220.162	
38.13205	5227.596	
38.21812	5206.095	
38.24178	5218.992	
38.32802	5194.636	
38.35097	5200.519	
38.43675	5186.17	
38.4601	5192.058	
38.54657	5183.442	
38.57	5178.397	
38.65591	5165.138	
38.67954	5170.19	
38.76552	5165.836	
38.78876	5171.046	
38.8741	5158.883	
38.89736	5171.853	
38.98432	5149.782	
39.00726	5150.378	
39.09412	5135.789	
39.11836	5128.506	
39.20228	5123.33	
39.22502	5130.379	
39.31181	5107.796	
39.33516	5131.99	
39.42322	5100.931	
39.44674	5126.44	
39.53268	5096.062	
39.55664	5097.841	
39.64061	5109.711	
39.66321	5082.935	
39.75279	5093.28	
39.77585	5096.938	
39.86056	5083.494	
39.88411	5079.449	
39.96909	5053.024	
39.99226	5070.437	
40.08365	5055.653	
40.10811	5054.017	
40.1916	5038.164	
40.21458	5042.372	
40.30132	5032.976	
40.32439	5042.54	
40.41217	5020.081	
40.43555	5043.824	
40.51984	5016.027	
40.5429	5028.522	
40.63024	5003.55	
40.65332	5003.642	
40.74055	4997.434	
40.76356	4999.671	
40.85001	4988.188	
40.87349	4988.294	
40.9593	4974.125	
40.98314	4985.415	
41.07014	4952.564	
41.09345	4986.31	
41.17644	4962.824	
41.20139	4968.921	
41.28659	4950.426	
41.31047	4949.376	
41.39667	4942.85	
41.41983	4949.485	
41.50509	4917.238	
41.52799	4947.489	
41.61461	4927.22	
41.63916	4941.879	
41.72419	4911.572	
41.74797	4920.573	
41.83573	4908.157	
41.85875	4917.384	
41.94341	4915.019	
41.96737	4910.605	
42.05358	4891.059	
42.07666	4896.414	
42.16243	4871.691	
42.18732	4888.945	
42.27365	4858.654	
42.29631	4868.129	
42.38302	4857.435	
42.40574	4862.144	
42.49195	4846.119	
42.51551	4850.64	
42.60237	4831.512	
42.62557	4841.679	
42.71034	4832.168	
42.73359	4851.307	
42.8198	4816.044	
42.84542	4842.911	
42.93	4820.719	
42.95348	4817.085	
43.03952	4817.784	
43.06276	4817.623	
43.14801	4792.729	
43.17112	4805.147	
43.2582	4782.592	
43.28105	4797.935	
43.36741	4781.647	
43.39044	4787.379	
43.47635	4768.056	
43.4993	4779.658	
43.58663	4762.907	
43.61007	4767.436	
43.6967	4765.372	
43.71959	4765.662	
43.80505	4749.319	
43.82798	4756.542	
43.91381	4729.301	
43.93695	4760.275	
44.02464	4726.459	
44.04834	4727.155	
44.13354	4717.723	
44.15663	4727.267	
44.24168	4707.372	
44.26463	4716.719	
44.35194	4689.26	
44.37519	4699.759	
44.46172	4679.546	
44.48497	4681.064	
44.57283	4677.811	
44.59536	4685.434	
44.67879	4662.506	
44.70252	4678.493	
44.79069	4662.735	
44.81413	4676.645	
44.90058	4654.467	
44.92418	4663.531	
45.00792	4642.677	
45.03094	4665.772	
45.11649	4638.662	
45.13951	4638.814	
45.22619	4636.264	
45.24917	4647.602	
45.33628	4609.934	
45.35967	4638.684	
45.44596	4613.369	
45.46933	4634.181	
45.55529	4602.93	
45.57852	4605.468	
45.66483	4591.978	
45.68798	4594.454	
45.77353	4580.151	
45.7981	4600.238	
45.88502	4566.321	
45.90823	4592.982	
45.99479	4561.458	
46.01816	4563.289	
46.10442	4547.095	
46.12753	4557.254	
46.21214	4552.24	
46.2353	4548.044	
46.32146	4536.731	
46.34442	4558.406	
46.43134	4524.218	
46.45483	4542.514	
46.54098	4532.035	
46.56395	4532.841	
46.65023	4522.844	
46.67351	4528.026	
46.76088	4494.126	
46.78725	4511.621	
46.86942	4512.955	
46.8923	4505.56	
46.97963	4483.891	
47.0034	4496.124	
47.08893	4484.107	
47.11226	4487.533	
47.19902	4475.29	
47.22158	4481.656	
47.3068	4463.695	
47.33127	4483.946	
47.41862	4466.949	
47.44145	4469.266	
47.52625	4466.626	
47.54962	4463.742	
47.63616	4441.766	
47.6593	4457.96	
47.74451	4428.11	
47.76879	4440.788	
47.85532	4425.421	
47.87865	4431.864	
47.96605	4407.083	
47.9902	4428.693	
48.07628	4403.1	
48.09841	4413.031	
48.18369	4395.984	
48.20718	4403.708	
48.29226	4385.784	
48.31681	4393.067	
48.40431	4379.522	
48.42762	4385.348	
48.51302	4371.932	
48.53599	4375.73	
48.62516	4361.726	
48.64869	4368.275	
48.73618	4352.596	
48.76103	4366.696	
48.84454	4345.771	
48.8678	4357.584	
48.95445	4332.824	
48.97757	4350.341	
49.06424	4317.227	
49.0867	4339.694	
49.1731	4314.718	
49.19688	4318.277	
49.283	4308.88	
49.30731	4311.957	
49.39157	4307.882	
49.41505	4308.888	
49.50072	4303.042	
49.52572	4302.371	
49.61256	4279.69	
49.63486	4295.44	
49.72042	4265.775	
49.74379	4290.208	
49.83061	4256.951	
49.85552	4277.327	
49.93896	4249.094	
49.96136	4266.77	
50.04913	4242.388	
50.07218	4248.796	
50.15836	4232.52	
50.18121	4258.754	
50.26632	4247.604	
50.28935	4258.755	
50.37827	4229.893	
50.40092	4240.523	
50.48541	4212.274	
50.50852	4234.413	
50.59639	4205.178	
50.62015	4218.64	
50.70736	4196.76	
50.73056	4215.061	
50.81805	4197.793	
50.84278	4206.262	
50.92875	4182.173	
50.95206	4202.872	
51.03843	4183.513	
51.0614	4190.506	
51.14643	4172.417	
51.16986	4179.829	
51.25606	4172.599	
51.27886	4186.398	
51.36489	4163.504	
51.38961	4176.773	
51.47458	4155.485	
51.498	4160.058	
51.58389	4133.533	
51.60699	4136.123	
51.6951	4128.443	
51.71764	4139.964	
51.80183	4122.881	
51.82579	4138.239	
51.91297	4117.053	
51.93588	4138.86	
52.02278	4106.154	
52.04607	4111.541	
52.13304	4093.134	
52.15574	4111.861	
52.24088	4092.842	
52.26363	4090.805	
52.35166	4078.524	
52.37392	4088.707	
52.45835	4076.803	
52.48127	4080.261	
52.56892	4060.783	
52.5927	4077.084	
52.67823	4061.616	
52.70071	4077.221	
52.78608	4044.133	
52.80944	4062.45	
52.89784	4046.08	
52.92154	4056.551	
53.00687	4024.9	
53.02978	4034.171	
53.11668	4027.361	
53.14019	4045.166	
53.22491	4017.968	
53.24825	4034.769	
53.33474	4011.043	
53.35765	4033.598	
53.44515	4001.207	
53.46833	4005.681	
53.55457	3996.193	
53.57811	4001.267	
53.66217	3979.984	
53.68528	3997.644	
53.77352	3965.101	
53.79616	3990.219	
53.88395	3958.028	
53.9072	3984.475	
53.99237	3956.407	
54.01631	3963.828	
54.10254	3953.877	
54.1252	3977.229	
54.21201	3950.142	
54.23513	3953.492	
54.3219	3943.77	
54.34547	3954.12	
54.42978	3941.209	
54.45335	3944.88	
54.54103	3920.254	
54.56399	3933.288	
54.64933	3915.048	
54.67255	3920.567	
54.75938	3911.108	
54.78247	3904.284	
54.86799	3903.158	
54.89086	3905.022	
54.9789	3887.284	
55.00241	3901.582	
55.08827	3888.497	
55.11175	3899.593	
55.19792	3883.301	
55.22182	3893.14	
55.3087	3861.649	
55.33156	3880.192	
55.41531	3861.074	
55.43846	3878.466	
55.52517	3858.173	
55.54808	3872.27	
55.63597	3841.499	
55.65895	3865.971	
55.74665	3835.251	
55.7703	3852.894	
55.85532	3826.607	
55.87803	3838.299	
55.9641	3817.919	
55.9875	3839.252	
56.07378	3815.13	
56.09708	3831.479	
56.18298	3805.07	
56.20615	3812.236	
56.29371	3803.585	
56.31771	3806.02	
56.40216	3790.464	
56.4254	3795.453	
56.51328	3782.571	
56.53748	3798.998	
56.62209	3763.652	
56.64468	3786.83	
56.73211	3769.007	
56.75519	3784.137	
56.84142	3763.59	
56.86516	3764.484	
56.9522	3755.025	
56.97515	3756.786	
57.06177	3730.263	
57.08479	3763.71	
57.16957	3737.977	
57.1932	3748.328	
57.28169	3731.311	
57.30383	3742.363	
57.3897	3722.205	
57.41339	3725.25	
57.49849	3712.345	
57.52147	3722.782	
57.60758	3705.443	
57.63082	3717.332	
57.71939	3695.631	
57.74275	3713.793	
57.82859	3685.451	
57.85131	3703.83	
57.93977	3676.704	
57.96315	3700.449	
58.05344	3667.926	
58.07726	3689.219	
58.16407	3671.356	
58.18682	3691.153	
58.27894	3660.566	
58.30243	3681.236	
58.38594	3665.499	
58.40891	3674.259	
58.50032	3641.057	
58.52322	3667.106	
58.61024	3643.836	
58.63305	3649.076	
58.71961	3640.835	
58.74247	3642.747	
58.82838	3627.149	
58.85109	3635.125	
58.93776	3621.134	
58.96069	3645.784	
59.04809	3608.238	
59.07157	3631.016	
59.15601	3597.955	
59.17954	3620.791	
59.26825	3594.775	
59.29255	3615.353	
59.37643	3595.519	
59.4019	3607.54	
59.48659	3582.81	
59.51126	3600.763	
59.60079	3585.494	
59.62659	3599.807	
59.7093	3570.047	
59.73539	3588.071	
59.82278	3560.933	
59.84787	3573.963	
59.9326	3563.95	
59.95808	3582.592	
60.04543	3543.64	
60.07097	3566.199	
60.15728	3543.732	
60.18212	3561.289	
60.26691	3534.571	
60.29196	3547.204	
60.37811	3516.159	
60.40395	3538.629	
60.49067	3518.062	
60.51719	3530.72	
60.60521	3516.039	
60.62866	3528.884	
60.71257	3503.277	
60.7385	3526.689	
60.82565	3501.234	
60.85177	3520.789	
60.93923	3498.116	
60.96326	3505.431	
61.05137	3486.681	
61.07846	3501.047	
61.16313	3482.272	
61.18977	3490.797	
61.27669	3469.203	
61.30131	3485.036	
61.38625	3463.164	
61.41187	3475.923	
61.49826	3461.412	
61.52268	3457.986	
61.60949	3450.34	
61.63301	3467.645	
61.71958	3445.97	
61.74239	3457.37	
61.82747	3439.713	
61.85101	3450.719	
61.93794	3424.805	
61.96075	3446.477	
62.04936	3424.413	
62.07191	3438.071	
62.15696	3426.204	
62.1798	3432.994	
62.26651	3418.755	
62.29008	3430.543	
62.37666	3399.927	
62.39983	3425.937	
62.4852	3406.244	
62.51035	3423.938	
62.59342	3391.699	
62.61708	3415.848	
62.70569	3386.632	
62.72881	3412.6	
62.81343	3390.03	
62.83665	3400.015	
62.92289	3373.77	
62.94591	3402.76	
63.03374	3368.492	
63.05649	3393.291	
63.14259	3374.65	
63.16595	3382.831	
63.25195	3363.528	
63.27797	3379.12	
63.36559	3355.719	
63.38834	3369.774	
63.47593	3363.543	
63.49913	3373.76	
63.58823	3354.127	
63.61153	3378.317	
63.69722	3354.078	
63.72063	3367.148	
63.80673	3343.951	
63.83003	3355.351	
63.91749	3341.301	
63.94018	3353.311	
64.02633	3327.522	
64.04942	3349.219	
64.13679	3325.953	
64.1601	3334.695	
64.24635	3322.661	
64.27006	3339.409	
64.35489	3313.165	
64.37813	3335.825	
64.46438	3311.717	
64.48744	3329.082	
64.57407	3322.598	
64.59716	3333.565	
64.68517	3308.176	
64.70844	3324.407	
64.7927	3310.851	
64.81567	3323.855	
64.90354	3299.78	
64.92987	3325.626	
65.01648	3297.177	
65.03915	3313.366	
65.12528	3298.691	
65.14857	3326.786	
65.23631	3301.393	
65.25972	3315.675	
65.34589	3297.994	
65.36865	3327.105	
65.45511	3292.37	
65.47815	3320.322	
65.56467	3296.266	
65.58824	3315.763	
65.67346	3301.197	
65.69631	3316.965	
65.78735	3296.247	
65.81094	3315.352	
65.8966	3294.29	
65.91987	3310.12	
66.00696	3290.455	
66.03065	3311.863	
66.11769	3300.147	
66.14025	3326.556	
66.22466	3296.808	
66.24756	3324.792	
66.33617	3299.504	
66.36035	3323.642	
66.44486	3308.949	
66.46759	3324.256	
66.55216	3311.097	
66.57513	3338.553	
66.66306	3324.608	
66.68694	3325.833	
66.77348	3331.053	
66.79675	3339.953	
66.8838	3334.615	
66.90655	3353.182	
66.99516	3344.936	
67.0193	3366.729	
67.10297	3348.892	
67.12589	3367.427	
67.21277	3362.305	
67.23595	3377.479	
67.32217	3367.14	
67.34624	3391.791	
67.43194	3385.031	
67.45518	3413.451	
67.54173	3397.458	
67.56526	3418.852	
67.64935	3404.492	
67.67273	3436.072	
67.76014	3422.526	
67.78324	3441.311	
67.87019	3443.086	
67.89317	3465.511	
67.978	3454.961	
68.00162	3486.169	
68.08944	3476.504	
68.11288	3508.05	
68.1967	3500.769	
68.22028	3531.349	
68.30778	3526.338	
68.33083	3560.95	
68.41751	3550.933	
68.44055	3573.07	
68.5253	3574.548	
68.54901	3599.371	
68.63597	3597.771	
68.66004	3622.918	
68.74763	3629.931	
68.77383	3664.033	
68.8588	3658.9	
68.88419	3703.408	
68.96832	3698.802	
68.99174	3732.749	
69.0801	3742.129	
69.10335	3759.739	
69.18666	3769.333	
69.20959	3805.232	
69.29662	3813.56	
69.31947	3854.234	
69.40688	3859.828	
69.43145	3896.019	
69.5154	3892.394	
69.5387	3950.149	
69.62543	3948.655	
69.64757	3988.54	
69.73415	3996.597	
69.75828	4059.799	
69.84524	4061.292	
69.86835	4086.979	
69.95459	4111.81	
69.97755	4158.036	
70.06523	4177.692	
70.08898	4217.462	
70.17208	4222.124	
70.19542	4296.245	
70.28394	4299.198	
70.30704	4346.774	
70.39289	4376.285	
70.41871	4429.021	
70.50648	4460.668	
70.53012	4497.902	
70.61613	4532.462	
70.63955	4575.187	
70.7259	4624.208	
70.74866	4667.827	
70.83307	4685.952	
70.85616	4748.366	
70.94443	4785.578	
70.9685	4837.054	
71.05397	4883.745	
71.0778	4937.436	
71.16428	4966.031	
71.18718	5025.712	
71.2737	5057.149	
71.29679	5103.598	
71.3832	5134.25	
71.40884	5197.871	
71.4945	5213.887	
71.51776	5290.443	
71.60912	5318.43	
71.63285	5381.871	
71.71935	5380.253	
71.74298	5457.191	
71.82851	5476.424	
71.8516	5540.24	
71.94149	5583.414	
71.96407	5645.455	
72.05222	5677.744	
72.07657	5745.148	
72.16102	5769.64	
72.18407	5845.659	
72.27081	5865.155	
72.29559	5929.27	
72.37913	5956.393	
72.40437	6023.199	
72.48949	6055.512	
72.51282	6105.699	
72.60394	6129.65	
72.62806	6195.427	
72.71412	6208.853	
72.73657	6243.732	
72.82039	6289.58	
72.84423	6342.099	
72.93235	6332.157	
72.9548	6392.104	
73.04182	6405.751	
73.06566	6447.167	
73.15211	6436.641	
73.17663	6510.386	
73.25986	6480.059	
73.28209	6546.326	
73.36959	6541.589	
73.39408	6598.249	
73.48083	6576.6	
73.50403	6631.808	
73.59312	6609.897	
73.61602	6662.381	
73.70395	6638.531	
73.7285	6706.968	
73.81303	6677.968	
73.83546	6736.787	
73.92088	6702.708	
73.94379	6762.451	
74.03194	6734.821	
74.05684	6779.031	
74.1423	6740.688	
74.16566	6820.854	
74.25111	6774.691	
74.27359	6818.384	
74.36061	6792.176	
74.38445	6845.947	
74.4758	6804.306	
74.49843	6867.276	
74.58312	6832.877	
74.60625	6897.919	
74.6939	6835.5	
74.71702	6885.181	
74.80297	6882.667	
74.82696	6905.486	
74.91333	6869.55	
74.93784	6923.01	
75.02179	6879.259	
75.0453	6938.373	
75.13374	6892.98	
75.1581	6944.335	
75.2426	6892.941	
75.26637	6949.334	
75.35214	6908.032	
75.37859	6966.163	
75.46639	6929.043	
75.48977	6970.421	
75.57546	6936.994	
75.60075	6987.451	
75.68497	6952.067	
75.70789	6972.308	
75.79247	6948.774	
75.81909	7007.251	
75.90681	6948.755	
75.92928	7005.616	
76.01519	6949.957	
76.04129	7011.191	
76.12871	6960.29	
76.15189	7016.511	
76.23876	6977.996	
76.26505	7016.469	
76.35198	6974.113	
76.37511	7017.437	
76.4616	6979.41	
76.48788	7033.65	
76.57606	6992.933	
76.59863	7018.375	
76.68345	6986.526	
76.70937	7037.16	
76.79369	6987.262	
76.81678	7050.635	
76.90685	6981.605	
76.9302	7046.038	
77.01651	7004.878	
77.03976	7050.624	
77.12838	6993.025	
77.15102	7055.879	
77.23531	7000.095	
77.2593	7051.029	
77.34994	6988.587	
77.37289	7041.372	
77.45894	7000.874	
77.48203	7043.734	
77.56808	6996.772	
77.59046	7053.801	
