T[Â°C]	330nm [counts / mm]	S.D.	First derivative	S.D. of first derivative
20.00119	3517.607		-51.37701	
20.05513	3514.749		-51.32179	
20.10908	3511.892		-51.26672	
20.16303	3509.036		-51.21182	
20.21698	3506.181		-51.15709	
20.27092	3503.327		-51.10251	
20.32487	3500.475		-51.04809	
20.37882	3497.623		-50.99382	
20.43277	3494.772		-50.93971	
20.48672	3491.921		-50.88575	
20.54066	3489.069		-50.83192	
20.59461	3486.215		-50.77821	
20.64856	3483.359		-50.72462	
20.70251	3480.5		-50.67114	
20.75645	3477.639		-50.61774	
20.8104	3474.778		-50.5644	
20.86435	3471.917		-50.51111	
20.9183	3469.063		-50.45784	
20.97224	3466.223		-50.40456	
21.02619	3463.45		-50.35124	
21.08014	3460.705		-50.29786	
21.13409	3457.994		-50.24435	
21.18803	3455.321		-50.19071	
21.24198	3452.679		-50.13688	
21.29593	3450.057		-50.08282	
21.34988	3447.445		-50.02849	
21.40383	3444.837		-49.97385	
21.45777	3442.232		-49.91886	
21.51172	3439.633		-49.86348	
21.56567	3437.046		-49.80767	
21.61962	3434.481		-49.75141	
21.67356	3431.949		-49.69466	
21.72751	3429.449		-49.63741	
21.78146	3426.974		-49.57964	
21.83541	3424.51		-49.52133	
21.88935	3422.041		-49.46248	
21.9433	3419.553		-49.4031	
21.99725	3417.037		-49.34318	
22.0512	3414.493		-49.28276	
22.10514	3411.914		-49.22187	
22.15909	3409.29		-49.16058	
22.21304	3406.618		-49.09896	
22.26699	3403.899		-49.03713	
22.32093	3401.139		-48.97527	
22.37488	3398.343		-48.91359	
22.42883	3395.52		-48.85242	
22.48278	3392.68		-48.7922	
22.53673	3389.834		-48.73348	
22.59067	3386.991		-48.67695	
22.64462	3384.16		-48.61988	
22.69857	3381.344		-48.56486	
22.75252	3378.543		-48.51193	
22.80646	3375.762		-48.46111	
22.86041	3373.005		-48.41233	
22.91436	3370.272		-48.36547	
22.96831	3367.557		-48.32037	
23.02225	3364.858		-48.27683	
23.0762	3362.175		-48.23465	
23.13015	3359.515		-48.19363	
23.1841	3356.878		-48.15359	
23.23804	3354.265		-48.11432	
23.29199	3351.679		-48.07561	
23.34594	3349.126		-48.03728	
23.39989	3346.611		-47.99911	
23.45383	3344.137		-47.9609	
23.50778	3341.706		-47.92246	
23.56173	3339.314		-47.88362	
23.61568	3336.947		-47.84424	
23.66963	3334.587		-47.80419	
23.72357	3332.213		-47.76337	
23.77752	3329.811		-47.7217	
23.83147	3327.367		-47.67908	
23.88542	3324.872		-47.63547	
23.93936	3322.323		-47.59087	
23.99331	3319.733		-47.54531	
24.04726	3317.118		-47.49886	
24.10121	3314.493		-47.45162	
24.15515	3311.872		-47.40369	
24.2091	3309.273		-47.35524	
24.26305	3306.71		-47.30643	
24.317	3304.184		-47.25752	
24.37094	3301.693		-47.20878	
24.42489	3299.229		-47.16054	
24.47884	3296.778		-47.11316	
24.53279	3294.326		-47.06702	
24.58673	3291.864		-47.02245	
24.64068	3289.387		-46.97977	
24.69463	3286.886		-46.93922	
24.74858	3284.355		-46.90104	
24.80253	3281.792		-46.8654	
24.85647	3279.198		-46.83243	
24.91042	3276.58		-46.8022	
24.96437	3273.953		-46.77473	
25.01832	3271.337		-46.75002	
25.07226	3268.751		-46.72801	
25.12621	3266.206		-46.70863	
25.18016	3263.71		-46.69179	
25.23411	3261.264		-46.67733	
25.28805	3258.856		-46.66508	
25.342	3256.458		-46.65482	
25.39595	3254.05		-46.64629	
25.4499	3251.617		-46.63919	
25.50385	3249.149		-46.63323	
25.55779	3246.639		-46.6281	
25.61174	3244.077		-46.62351	
25.66569	3241.466		-46.61919	
25.71964	3238.814		-46.61485	
25.77358	3236.143		-46.61024	
25.82753	3233.472		-46.6051	
25.88148	3230.815		-46.59921	
25.93543	3228.182		-46.59238	
25.98937	3225.584		-46.58443	
26.04332	3223.025		-46.57518	
26.09727	3220.504		-46.56445	
26.15122	3218.013		-46.55201	
26.20516	3215.546		-46.53763	
26.25911	3213.097		-46.52108	
26.31306	3210.661		-46.50219	
26.36701	3208.231		-46.48079	
26.42095	3205.798		-46.45684	
26.4749	3203.35		-46.43038	
26.52885	3200.88		-46.4015	
26.5828	3198.392		-46.37037	
26.63675	3195.899		-46.33717	
26.69069	3193.424		-46.3021	
26.74464	3190.978		-46.2654	
26.79859	3188.564		-46.22738	
26.85254	3186.175		-46.18835	
26.90648	3183.799		-46.14865	
26.96043	3181.419		-46.1086	
27.01438	3179.017		-46.0685	
27.06833	3176.583		-46.02865	
27.12227	3174.114		-45.98929	
27.17622	3171.617		-45.95065	
27.23017	3169.094		-45.9129	
27.28412	3166.535		-45.87619	
27.33806	3163.934		-45.84062	
27.39201	3161.295		-45.80626	
27.44596	3158.631		-45.77318	
27.49991	3155.964		-45.74145	
27.55385	3153.312		-45.71115	
27.6078	3150.686		-45.68238	
27.66175	3148.092		-45.65522	
27.7157	3145.528		-45.62982	
27.76965	3142.987		-45.60628	
27.82359	3140.464		-45.5847	
27.87754	3137.961		-45.56515	
27.93149	3135.483		-45.54763	
27.98544	3133.034		-45.5321	
28.03938	3130.617		-45.51842	
28.09333	3128.232		-45.50631	
28.14728	3125.873		-45.49542	
28.20123	3123.529		-45.48528	
28.25517	3121.19		-45.47539	
28.30912	3118.853		-45.46521	
28.36307	3116.523		-45.45421	
28.41702	3114.202		-45.44188	
28.47096	3111.89		-45.4278	
28.52491	3109.581		-45.41158	
28.57886	3107.268		-45.39291	
28.63281	3104.95		-45.37156	
28.68676	3102.624		-45.34737	
28.7407	3100.291		-45.32026	
28.79465	3097.951		-45.29025	
28.8486	3095.602		-45.25745	
28.90255	3093.24		-45.22206	
28.95649	3090.854		-45.18434	
29.01044	3088.426		-45.14458	
29.06439	3085.947		-45.1031	
29.11834	3083.423		-45.06028	
29.17228	3080.872		-45.01648	
29.22623	3078.321		-44.97209	
29.28018	3075.791		-44.92743	
29.33413	3073.29		-44.88279	
29.38807	3070.813		-44.83837	
29.44202	3068.354		-44.79438	
29.49597	3065.909		-44.75101	
29.54992	3063.471		-44.70844	
29.60386	3061.038		-44.6669	
29.65781	3058.61		-44.62666	
29.71176	3056.183		-44.58797	
29.76571	3053.748		-44.55109	
29.81966	3051.301		-44.51623	
29.8736	3048.839		-44.48353	
29.92755	3046.356		-44.45309	
29.9815	3043.852		-44.42498	
30.03545	3041.333		-44.39922	
30.08939	3038.804		-44.3758	
30.14334	3036.276		-44.3546	
30.19729	3033.754		-44.33546	
30.25124	3031.24		-44.31818	
30.30518	3028.737		-44.30243	
30.35913	3026.248		-44.28788	
30.41308	3023.778		-44.27412	
30.46703	3021.33		-44.26071	
30.52098	3018.905		-44.2472	
30.57492	3016.502		-44.23315	
30.62887	3014.124		-44.21814	
30.68282	3011.772		-44.2018	
30.73676	3009.453		-44.18384	
30.79071	3007.169		-44.16406	
30.84466	3004.919		-44.14236	
30.89861	3002.703		-44.11876	
30.95256	3000.513		-44.09336	
31.0065	2998.334		-44.06635	
31.06045	2996.155		-44.03798	
31.1144	2993.962		-44.00856	
31.16835	2991.749		-43.9785	
31.22229	2989.524		-43.94818	
31.27624	2987.293		-43.91796	
31.33019	2985.06		-43.88818	
31.38414	2982.824		-43.85907	
31.43808	2980.581		-43.83082	
31.49203	2978.327		-43.80358	
31.54598	2976.059		-43.77742	
31.59993	2973.77		-43.75243	
31.65388	2971.457		-43.72865	
31.70782	2969.107		-43.70614	
31.76177	2966.716		-43.6849	
31.81572	2964.286		-43.66489	
31.86967	2961.825		-43.64604	
31.92361	2959.342		-43.62827	
31.97756	2956.847		-43.61153	
32.03151	2954.346		-43.59578	
32.08546	2951.849		-43.58097	
32.1394	2949.362		-43.56709	
32.19335	2946.889		-43.55409	
32.2473	2944.427		-43.54189	
32.30125	2941.977		-43.53035	
32.35519	2939.542		-43.51928	
32.40914	2937.134		-43.50846	
32.46309	2934.754		-43.49763	
32.51704	2932.399		-43.48652	
32.57098	2930.057		-43.47483	
32.62493	2927.716		-43.46227	
32.67888	2925.373		-43.44851	
32.73283	2923.029		-43.4333	
32.78677	2920.686		-43.41639	
32.84072	2918.35		-43.39763	
32.89467	2916.03		-43.37692	
32.94862	2913.733		-43.35428	
33.00257	2911.462		-43.3298	
33.05651	2909.21		-43.30366	
33.11046	2906.965		-43.27609	
33.16441	2904.713		-43.24741	
33.21836	2902.443		-43.21797	
33.2723	2900.141		-43.18814	
33.32625	2897.797		-43.15829	
33.3802	2895.406		-43.12875	
33.43415	2892.969		-43.09981	
33.48809	2890.499		-43.0717	
33.54204	2888.013		-43.04461	
33.59599	2885.531		-43.01863	
33.64994	2883.063		-42.99383	
33.70388	2880.617		-42.97017	
33.75783	2878.194		-42.94758	
33.81178	2875.8		-42.92593	
33.86573	2873.44		-42.90503	
33.91967	2871.117		-42.88467	
33.97362	2868.827		-42.86464	
34.02757	2866.568		-42.8447	
34.08152	2864.332		-42.82464	
34.13547	2862.107		-42.80426	
34.18941	2859.881		-42.78337	
34.24336	2857.65		-42.76183	
34.29731	2855.411		-42.7395	
34.35126	2853.164		-42.71629	
34.4052	2850.915		-42.69213	
34.45915	2848.669		-42.66702	
34.5131	2846.437		-42.64095	
34.56705	2844.228		-42.61398	
34.62099	2842.053		-42.58611	
34.67494	2839.916		-42.5574	
34.72889	2837.813		-42.5279	
34.78284	2835.733		-42.49764	
34.83678	2833.658		-42.46668	
34.89073	2831.575		-42.43512	
34.94468	2829.47		-42.40308	
34.99863	2827.325		-42.37069	
35.05257	2825.124		-42.3381	
35.10652	2822.862		-42.30549	
35.16047	2820.543		-42.27305	
35.21442	2818.179		-42.24102	
35.26837	2815.777		-42.20971	
35.32232	2813.347		-42.17944	
35.37626	2810.901		-42.15056	
35.43021	2808.447		-42.12342	
35.48416	2805.992		-42.09835	
35.53811	2803.545		-42.0756	
35.59205	2801.11		-42.05533	
35.646	2798.692		-42.03761	
35.69995	2796.286		-42.02238	
35.75389	2793.887		-42.00946	
35.80784	2791.49		-41.99857	
35.86179	2789.091		-41.98929	
35.91574	2786.688		-41.98111	
35.96968	2784.282		-41.97348	
36.02363	2781.879		-41.96579	
36.07758	2779.483		-41.95746	
36.13153	2777.104		-41.94786	
36.18547	2774.753		-41.93643	
36.23943	2772.448		-41.92264	
36.29337	2770.206		-41.90605	
36.34732	2768.035		-41.8863	
36.40127	2765.932		-41.86312	
36.45522	2763.888		-41.83636	
36.50916	2761.885		-41.8059	
36.56311	2759.905		-41.77174	
36.61706	2757.924		-41.73394	
36.67101	2755.921		-41.69265	
36.72495	2753.877		-41.64809	
36.7789	2751.778		-41.60053	
36.83285	2749.625		-41.55027	
36.8868	2747.433		-41.49765	
36.94074	2745.216		-41.443	
36.99469	2742.98		-41.3867	
37.04864	2740.726		-41.32907	
37.10258	2738.459		-41.27045	
37.15653	2736.182		-41.21118	
37.21048	2733.892		-41.15162	
37.26443	2731.586		-41.09218	
37.31837	2729.268		-41.03334	
37.37233	2726.938		-40.97563	
37.42627	2724.597		-40.91962	
37.48022	2722.243		-40.86593	
37.53417	2719.875		-40.81512	
37.58812	2717.496		-40.76773	
37.64206	2715.116		-40.72421	
37.69601	2712.749		-40.68493	
37.74996	2710.405		-40.6502	
37.80391	2708.093		-40.62018	
37.85785	2705.816		-40.59494	
37.9118	2703.576		-40.57443	
37.96575	2701.377		-40.55853	
38.0197	2699.221		-40.54703	
38.07364	2697.106		-40.53961	
38.12759	2695.026		-40.53589	
38.18154	2692.975		-40.53538	
38.23549	2690.947		-40.53753	
38.28943	2688.928		-40.54175	
38.34338	2686.913		-40.5474	
38.39733	2684.895		-40.55386	
38.45127	2682.871		-40.56055	
38.50523	2680.838		-40.56689	
38.55917	2678.793		-40.57239	
38.61312	2676.733		-40.57659	
38.66707	2674.659		-40.57911	
38.72102	2672.569		-40.57965	
38.77496	2670.457		-40.57796	
38.82891	2668.321		-40.57388	
38.88286	2666.167		-40.56722	
38.93681	2664.003		-40.55789	
38.99075	2661.831		-40.54578	
39.0447	2659.657		-40.53085	
39.09865	2657.484		-40.51305	
39.1526	2655.312		-40.49236	
39.20654	2653.132		-40.46879	
39.26049	2650.942		-40.44237	
39.31444	2648.742		-40.4132	
39.36839	2646.537		-40.38144	
39.42233	2644.331		-40.3473	
39.47628	2642.128		-40.31107	
39.53023	2639.929		-40.27305	
39.58418	2637.736		-40.23357	
39.63813	2635.558		-40.193	
39.69207	2633.402		-40.15173	
39.74602	2631.265		-40.11015	
39.79997	2629.135		-40.0687	
39.85392	2626.993		-40.02779	
39.90786	2624.823		-39.98787	
39.96181	2622.61		-39.9493	
40.01576	2620.344		-39.91245	
40.06971	2618.019		-39.87763	
40.12365	2615.643		-39.84509	
40.1776	2613.238		-39.81497	
40.23155	2610.824		-39.78731	
40.2855	2608.415		-39.76203	
40.33944	2606.03		-39.73894	
40.39339	2603.68		-39.71776	
40.44734	2601.37		-39.69819	
40.50129	2599.096		-39.67992	
40.55523	2596.85		-39.66261	
40.60918	2594.623		-39.64596	
40.66313	2592.405		-39.6297	
40.71708	2590.198		-39.61358	
40.77103	2588.002		-39.59739	
40.82497	2585.82		-39.58092	
40.87892	2583.656		-39.56401	
40.93287	2581.507		-39.54649	
40.98682	2579.377		-39.52825	
41.04076	2577.273		-39.50916	
41.09471	2575.208		-39.48915	
41.14866	2573.196		-39.46815	
41.20261	2571.246		-39.44611	
41.25655	2569.359		-39.42294	
41.3105	2567.533		-39.39862	
41.36445	2565.757		-39.37307	
41.4184	2564.012		-39.3463	
41.47234	2562.276		-39.3183	
41.52629	2560.518		-39.28907	
41.58024	2558.712		-39.25862	
41.63419	2556.847		-39.227	
41.68813	2554.921		-39.19428	
41.74208	2552.942		-39.16057	
41.79603	2550.917		-39.12606	
41.84998	2548.858		-39.09102	
41.90393	2546.776		-39.05577	
41.95787	2544.679		-39.02071	
42.01182	2542.567		-38.98628	
42.06577	2540.431		-38.95293	
42.11972	2538.271		-38.92112	
42.17366	2536.087		-38.89128	
42.22761	2533.883		-38.86375	
42.28156	2531.663		-38.83878	
42.33551	2529.427		-38.8165	
42.38945	2527.178		-38.79691	
42.4434	2524.922		-38.7799	
42.49735	2522.663		-38.76532	
42.5513	2520.406		-38.75293	
42.60524	2518.145		-38.74246	
42.65919	2515.878		-38.73362	
42.71314	2513.611		-38.7261	
42.76709	2511.353		-38.7196	
42.82103	2509.124		-38.71379	
42.87498	2506.941		-38.70835	
42.92893	2504.81		-38.70293	
42.98288	2502.729		-38.69717	
43.03683	2500.684		-38.69074	
43.09077	2498.656		-38.68331	
43.14472	2496.626		-38.67459	
43.19867	2494.577		-38.66431	
43.25262	2492.496		-38.65227	
43.30656	2490.38		-38.63827	
43.36051	2488.237		-38.62213	
43.41446	2486.083		-38.6037	
43.46841	2483.935		-38.58282	
43.52235	2481.801		-38.55939	
43.5763	2479.686		-38.5333	
43.63025	2477.587		-38.50449	
43.6842	2475.502		-38.47295	
43.73814	2473.43		-38.4387	
43.79209	2471.373		-38.40181	
43.84604	2469.328		-38.36243	
43.89999	2467.292		-38.32076	
43.95393	2465.262		-38.27706	
44.00788	2463.229		-38.2317	
44.06183	2461.189		-38.18508	
44.11578	2459.139		-38.13765	
44.16973	2457.083		-38.08992	
44.22367	2455.026		-38.04238	
44.27762	2452.973		-37.99552	
44.33157	2450.929		-37.94977	
44.38552	2448.897		-37.90551	
44.43946	2446.88		-37.86305	
44.49341	2444.882		-37.82261	
44.54736	2442.903		-37.78434	
44.60131	2440.941		-37.74833	
44.65525	2438.99		-37.7146	
44.7092	2437.041		-37.68316	
44.76315	2435.085		-37.65395	
44.8171	2433.119		-37.62688	
44.87104	2431.141		-37.60183	
44.92499	2429.152		-37.57859	
44.97894	2427.158		-37.55698	
45.03289	2425.165		-37.53677	
45.08683	2423.177		-37.51772	
45.14078	2421.199		-37.49961	
45.19473	2419.229		-37.48225	
45.24868	2417.261		-37.46549	
45.30263	2415.286		-37.44919	
45.35658	2413.298		-37.43325	
45.41052	2411.296		-37.4176	
45.46447	2409.283		-37.40212	
45.51842	2407.27		-37.3867	
45.57236	2405.258		-37.37122	
45.62631	2403.247		-37.35553	
45.68026	2401.236		-37.33951	
45.73421	2399.223		-37.32302	
45.78815	2397.208		-37.30596	
45.8421	2395.19		-37.28817	
45.89605	2393.17		-37.26952	
45.95	2391.147		-37.24989	
46.00394	2389.12		-37.22916	
46.05789	2387.087		-37.20724	
46.11184	2385.046		-37.18404	
46.16579	2382.993		-37.15952	
46.21973	2380.931		-37.13367	
46.27368	2378.865		-37.10652	
46.32763	2376.801		-37.07813	
46.38158	2374.745		-37.0486	
46.43553	2372.701		-37.01805	
46.48948	2370.667		-36.9866	
46.54342	2368.635		-36.95438	
46.59737	2366.596		-36.92153	
46.65132	2364.546		-36.88817	
46.70527	2362.483		-36.85441	
46.75921	2360.412		-36.82033	
46.81316	2358.34		-36.78594	
46.86711	2356.273		-36.75123	
46.92105	2354.213		-36.7161	
46.975	2352.163		-36.68042	
47.02895	2350.126		-36.64404	
47.0829	2348.102		-36.6068	
47.13684	2346.092		-36.56855	
47.19079	2344.096		-36.5292	
47.24474	2342.115		-36.48866	
47.29869	2340.146		-36.44694	
47.35263	2338.183		-36.40411	
47.40658	2336.219		-36.36029	
47.46053	2334.253		-36.31565	
47.51448	2332.291		-36.27042	
47.56843	2330.335		-36.22482	
47.62238	2328.393		-36.17909	
47.67632	2326.464		-36.1335	
47.73027	2324.55		-36.08829	
47.78422	2322.653		-36.04374	
47.83817	2320.772		-36.00004	
47.89211	2318.906		-35.95739	
47.94606	2317.05		-35.91591	
48.00001	2315.201		-35.87571	
48.05396	2313.358		-35.83681	
48.1079	2311.52		-35.79925	
48.16185	2309.682		-35.763	
48.2158	2307.838		-35.72802	
48.26974	2305.979		-35.69431	
48.32369	2304.097		-35.66182	
48.37764	2302.199		-35.63056	
48.43159	2300.296		-35.60053	
48.48553	2298.399		-35.57177	
48.53948	2296.515		-35.54434	
48.59343	2294.639		-35.51831	
48.64738	2292.767		-35.49377	
48.70133	2290.895		-35.4708	
48.75528	2289.019		-35.44949	
48.80922	2287.137		-35.42988	
48.86317	2285.244		-35.41202	
48.91712	2283.337		-35.39587	
48.97107	2281.417		-35.38137	
49.02501	2279.485		-35.36837	
49.07896	2277.544		-35.35669	
49.13291	2275.594		-35.34612	
49.18686	2273.638		-35.33639	
49.2408	2271.682		-35.32723	
49.29475	2269.735		-35.31838	
49.3487	2267.801		-35.30962	
49.40265	2265.886		-35.30075	
49.45659	2263.997		-35.29165	
49.51054	2262.136		-35.28225	
49.56449	2260.301		-35.27255	
49.61843	2258.479		-35.26261	
49.67239	2256.661		-35.25252	
49.72633	2254.837		-35.24239	
49.78028	2253.002		-35.23237	
49.83423	2251.15		-35.22257	
49.88818	2249.277		-35.21309	
49.94212	2247.374		-35.20398	
49.99607	2245.439		-35.19523	
50.05002	2243.476		-35.18682	
50.10397	2241.49		-35.17867	
50.15791	2239.492		-35.17064	
50.21186	2237.486		-35.16259	
50.26581	2235.475		-35.15438	
50.31976	2233.46		-35.1458	
50.3737	2231.448		-35.13668	
50.42765	2229.447		-35.12684	
50.4816	2227.467		-35.1161	
50.53555	2225.511		-35.10436	
50.58949	2223.579		-35.09151	
50.64344	2221.665		-35.07749	
50.69739	2219.759		-35.06228	
50.75134	2217.853		-35.04588	
50.80529	2215.937		-35.02834	
50.85923	2214.011		-35.00977	
50.91318	2212.082		-34.99031	
50.96713	2210.158		-34.97013	
51.02108	2208.25		-34.94941	
51.07502	2206.366		-34.92828	
51.12897	2204.515		-34.90686	
51.18292	2202.702		-34.88521	
51.23687	2200.928		-34.86341	
51.29081	2199.184		-34.8415	
51.34476	2197.459		-34.81955	
51.39871	2195.74		-34.79762	
51.45266	2194.016		-34.77583	
51.5066	2192.277		-34.7543	
51.56055	2190.515		-34.73319	
51.6145	2188.722		-34.71267	
51.66845	2186.896		-34.69296	
51.72239	2185.04		-34.67424	
51.77634	2183.16		-34.65676	
51.83029	2181.26		-34.64072	
51.88424	2179.343		-34.62634	
51.93819	2177.407		-34.6138	
51.99213	2175.454		-34.60328	
52.04608	2173.484		-34.59488	
52.10003	2171.504		-34.58865	
52.15398	2169.524		-34.58461	
52.20792	2167.553		-34.58271	
52.26187	2165.598		-34.58284	
52.31582	2163.66		-34.58487	
52.36977	2161.739		-34.58856	
52.42371	2159.838		-34.59365	
52.47766	2157.961		-34.59981	
52.53161	2156.114		-34.6067	
52.58556	2154.303		-34.61395	
52.6395	2152.53		-34.62118	
52.69345	2150.79		-34.628	
52.7474	2149.072		-34.63401	
52.80135	2147.359		-34.63885	
52.85529	2145.641		-34.64224	
52.90924	2143.91		-34.64392	
52.96319	2142.16		-34.64375	
53.01714	2140.383		-34.64163	
53.07109	2138.574		-34.63747	
53.12503	2136.735		-34.63123	
53.17898	2134.869		-34.62285	
53.23293	2132.989		-34.61233	
53.28688	2131.109		-34.59966	
53.34082	2129.236		-34.58487	
53.39477	2127.367		-34.56804	
53.44872	2125.502		-34.54924	
53.50267	2123.636		-34.52858	
53.55661	2121.764		-34.50618	
53.61056	2119.879		-34.48215	
53.66451	2117.973		-34.45664	
53.71846	2116.042		-34.42976	
53.7724	2114.089		-34.40166	
53.82635	2112.116		-34.37248	
53.8803	2110.128		-34.34234	
53.93425	2108.129		-34.3114	
53.98819	2106.121		-34.27977	
54.04214	2104.109		-34.2476	
54.09609	2102.097		-34.215	
54.15004	2100.094		-34.18209	
54.20399	2098.104		-34.14899	
54.25793	2096.129		-34.11581	
54.31188	2094.177		-34.08263	
54.36583	2092.252		-34.0495	
54.41978	2090.359		-34.01645	
54.47372	2088.5		-33.98343	
54.52767	2086.674		-33.95036	
54.58162	2084.877		-33.91714	
54.63557	2083.103		-33.88363	
54.68951	2081.338		-33.84969	
54.74346	2079.57		-33.81515	
54.79741	2077.791		-33.77985	
54.85136	2075.998		-33.74364	
54.9053	2074.195		-33.70642	
54.95925	2072.385		-33.66813	
55.0132	2070.573		-33.62873	
55.06715	2068.768		-33.58825	
55.12109	2066.978		-33.54672	
55.17504	2065.205		-33.50419	
55.22899	2063.46		-33.46073	
55.28294	2061.749		-33.41641	
55.33689	2060.075		-33.37138	
55.39083	2058.426		-33.3258	
55.44478	2056.788		-33.27988	
55.49873	2055.145		-33.23386	
55.55268	2053.48		-33.18794	
55.60662	2051.782		-33.14234	
55.66057	2050.048		-33.09727	
55.71452	2048.281		-33.05292	
55.76847	2046.487		-33.00946	
55.82241	2044.671		-32.96704	
55.87636	2042.839		-32.92576	
55.93031	2041.001		-32.88567	
55.98426	2039.164		-32.84681	
56.0382	2037.335		-32.8092	
56.09215	2035.524		-32.77282	
56.1461	2033.734		-32.73771	
