T[Â°C]	330nm [counts / mm]	S.D.	First derivative	S.D. of first derivative
20.00112	3455.108		-51.51106	
20.05506	3452.152		-51.44482	
20.10901	3449.201		-51.37916	
20.16296	3446.255		-51.31411	
20.21691	3443.314		-51.24967	
20.27086	3440.38		-51.18587	
20.32481	3437.452		-51.12271	
20.37875	3434.532		-51.0602	
20.4327	3431.618		-50.99835	
20.48665	3428.711		-50.93717	
20.5406	3425.812		-50.87665	
20.59455	3422.918		-50.81679	
20.6485	3420.031		-50.7576	
20.70244	3417.148		-50.69905	
20.75639	3414.266		-50.64115	
20.81034	3411.382		-50.58387	
20.86429	3408.492		-50.52719	
20.91824	3405.593		-50.4711	
20.97219	3402.69		-50.41555	
21.02613	3399.908		-50.36053	
21.08008	3397.147		-50.30597	
21.13403	3394.415		-50.25185	
21.18798	3391.72		-50.19811	
21.24193	3389.069		-50.1447	
21.29588	3386.465		-50.09156	
21.34982	3383.902		-50.03864	
21.40377	3381.37		-49.98586	
21.45772	3378.863		-49.93318	
21.51167	3376.369		-49.88052	
21.56562	3373.871		-49.82781	
21.61957	3371.358		-49.77499	
21.67352	3368.834		-49.72197	
21.72746	3366.307		-49.66869	
21.78141	3363.78		-49.61507	
21.83536	3361.251		-49.56106	
21.88931	3358.713		-49.50658	
21.94326	3356.164		-49.45156	
21.99721	3353.612		-49.39597	
22.05116	3351.055		-49.33975	
22.1051	3348.489		-49.28286	
22.15905	3345.91		-49.22528	
22.213	3343.315		-49.16702	
22.26695	3340.701		-49.10812	
22.3209	3338.068		-49.04876	
22.37485	3335.421		-48.98919	
22.42879	3332.765		-48.92992	
22.48274	3330.104		-48.87172	
22.53669	3327.435		-48.81572	
22.59064	3324.76		-48.76324	
22.64459	3322.084		-48.70765	
22.69854	3319.412		-48.65086	
22.75248	3316.741		-48.59296	
22.80643	3314.072		-48.53407	
22.86038	3311.407		-48.47435	
22.91433	3308.757		-48.41403	
22.96828	3306.121		-48.35335	
23.02223	3303.489		-48.29256	
23.07617	3300.854		-48.23193	
23.13012	3298.209		-48.1717	
23.18407	3295.553		-48.11211	
23.23802	3292.878		-48.05337	
23.29197	3290.182		-47.99564	
23.34592	3287.466		-47.93904	
23.39986	3284.738		-47.88364	
23.45381	3282.01		-47.82947	
23.50776	3279.286		-47.77647	
23.56171	3276.563		-47.72456	
23.61566	3273.842		-47.67357	
23.66961	3271.131		-47.62336	
23.72355	3268.434		-47.57375	
23.7775	3265.752		-47.52457	
23.83145	3263.084		-47.4757	
23.8854	3260.428		-47.42698	
23.93935	3257.784		-47.37831	
23.9933	3255.149		-47.32957	
24.04725	3252.519		-47.28069	
24.10119	3249.897		-47.23163	
24.15514	3247.293		-47.18238	
24.20909	3244.713		-47.13304	
24.26304	3242.161		-47.08372	
24.31699	3239.64		-47.03451	
24.37094	3237.156		-46.98551	
24.42488	3234.719		-46.93681	
24.47883	3232.332		-46.88848	
24.53278	3229.989		-46.84058	
24.58673	3227.686		-46.79316	
24.64068	3225.415		-46.74619	
24.69463	3223.167		-46.69966	
24.74858	3220.927		-46.65355	
24.80252	3218.678		-46.60784	
24.85647	3216.411		-46.56254	
24.91042	3214.12		-46.51771	
24.96437	3211.801		-46.47343	
25.01832	3209.454		-46.42981	
25.07227	3207.083		-46.38697	
25.12621	3204.694		-46.34507	
25.18016	3202.296		-46.3043	
25.23411	3199.893		-46.26489	
25.28806	3197.488		-46.22707	
25.34201	3195.079		-46.19109	
25.39596	3192.654		-46.15718	
25.4499	3190.199		-46.12558	
25.50385	3187.7		-46.0965	
25.5578	3185.151		-46.07006	
25.61175	3182.554		-46.04636	
25.6657	3179.916		-46.0254	
25.71965	3177.247		-46.00714	
25.77359	3174.563		-45.99146	
25.82754	3171.881		-45.97819	
25.88149	3169.217		-45.96712	
25.93544	3166.581		-45.95798	
25.98939	3163.974		-45.95051	
26.04334	3161.397		-45.94438	
26.09728	3158.856		-45.93929	
26.15123	3156.354		-45.93496	
26.20518	3153.886		-45.93115	
26.25913	3151.444		-45.92765	
26.31308	3149.012		-45.92424	
26.36703	3146.578		-45.92072	
26.42097	3144.129		-45.9169	
26.47492	3141.66		-45.91262	
26.52887	3139.173		-45.90774	
26.58282	3136.674		-45.90216	
26.63677	3134.173		-45.89578	
26.69072	3131.677		-45.88854	
26.74467	3129.181		-45.88036	
26.79861	3126.681		-45.87119	
26.85256	3124.181		-45.86096	
26.90651	3121.685		-45.84964	
26.96046	3119.193		-45.83723	
27.01441	3116.7		-45.82371	
27.06836	3114.197		-45.80908	
27.1223	3111.675		-45.79334	
27.17625	3109.13		-45.77654	
27.2302	3106.567		-45.75871	
27.28415	3103.994		-45.73998	
27.3381	3101.421		-45.72047	
27.39205	3098.856		-45.70038	
27.446	3096.308		-45.67989	
27.49994	3093.782		-45.65924	
27.55389	3091.29		-45.63865	
27.60784	3088.842		-45.61838	
27.66179	3086.441		-45.59865	
27.71574	3084.085		-45.57967	
27.76969	3081.768		-45.5616	
27.82363	3079.48		-45.54451	
27.87758	3077.211		-45.52842	
27.93153	3074.946		-45.51328	
27.98548	3072.668		-45.49898	
28.03943	3070.367		-45.48538	
28.09338	3068.037		-45.47232	
28.14732	3065.679		-45.4596	
28.20127	3063.3		-45.44701	
28.25522	3060.907		-45.43431	
28.30917	3058.505		-45.42124	
28.36312	3056.095		-45.40754	
28.41707	3053.677		-45.39297	
28.47101	3051.25		-45.37731	
28.52496	3048.815		-45.36044	
28.57891	3046.371		-45.34229	
28.63286	3043.921		-45.32286	
28.68681	3041.464		-45.30227	
28.74076	3038.995		-45.28062	
28.7947	3036.512		-45.25807	
28.84865	3034.016		-45.23475	
28.9026	3031.513		-45.21078	
28.95655	3029.007		-45.18629	
29.0105	3026.503		-45.16137	
29.06445	3024		-45.1361	
29.11839	3021.496		-45.11049	
29.17234	3018.996		-45.08452	
29.22629	3016.51		-45.05812	
29.28024	3014.048		-45.03115	
29.33419	3011.614		-45.00344	
29.38814	3009.202		-44.97475	
29.44209	3006.799		-44.94485	
29.49603	3004.389		-44.91348	
29.54998	3001.956		-44.88036	
29.60393	2999.492		-44.84528	
29.65788	2996.994		-44.80806	
29.71183	2994.466		-44.76854	
29.76578	2991.914		-44.72662	
29.81972	2989.342		-44.68218	
29.87367	2986.763		-44.6351	
29.92762	2984.192		-44.58527	
29.98157	2981.64		-44.53261	
30.03552	2979.118		-44.47708	
30.08947	2976.63		-44.41865	
30.14341	2974.171		-44.35735	
30.19736	2971.734		-44.29319	
30.25131	2969.312		-44.22618	
30.30526	2966.905		-44.15636	
30.35921	2964.512		-44.08376	
30.41316	2962.138		-44.00846	
30.4671	2959.783		-43.9306	
30.52105	2957.444		-43.85033	
30.575	2955.114		-43.76789	
30.62895	2952.79		-43.6836	
30.6829	2950.472		-43.59785	
30.73685	2948.162		-43.51112	
30.79079	2945.865		-43.42395	
30.84474	2943.589		-43.33687	
30.89869	2941.344		-43.25049	
30.95264	2939.133		-43.16543	
31.00659	2936.946		-43.0823	
31.06054	2934.762		-43.00171	
31.11448	2932.561		-42.92419	
31.16843	2930.325		-42.85024	
31.22238	2928.044		-42.78026	
31.27633	2925.708		-42.71455	
31.33028	2923.318		-42.65333	
31.38423	2920.888		-42.59666	
31.43818	2918.442		-42.54457	
31.49212	2915.999		-42.49691	
31.54607	2913.576		-42.45353	
31.60002	2911.188		-42.41413	
31.65397	2908.849		-42.37844	
31.70792	2906.564		-42.34612	
31.76187	2904.33		-42.31685	
31.81581	2902.137		-42.29028	
31.86976	2899.969		-42.26606	
31.92371	2897.818		-42.24391	
31.97766	2895.682		-42.22356	
32.03161	2893.559		-42.20483	
32.08556	2891.44		-42.18759	
32.1395	2889.316		-42.17171	
32.19345	2887.178		-42.15709	
32.2474	2885.026		-42.1436	
32.30135	2882.864		-42.13116	
32.3553	2880.701		-42.11974	
32.40925	2878.553		-42.1093	
32.4632	2876.434		-42.09986	
32.51714	2874.345		-42.09146	
32.57109	2872.279		-42.08409	
32.62504	2870.221		-42.07778	
32.67899	2868.156		-42.07252	
32.73294	2866.066		-42.06829	
32.78688	2863.931		-42.06511	
32.84084	2861.738		-42.063	
32.89478	2859.475		-42.06203	
32.94873	2857.136		-42.0623	
33.00268	2854.726		-42.0639	
33.05663	2852.261		-42.06695	
33.11058	2849.768		-42.07156	
33.16452	2847.268		-42.07789	
33.21847	2844.773		-42.08607	
33.27242	2842.289		-42.09628	
33.32637	2839.819		-42.10865	
33.38032	2837.368		-42.12326	
33.43427	2834.937		-42.14016	
33.48822	2832.519		-42.15926	
33.54216	2830.109		-42.18041	
33.59611	2827.71		-42.20332	
33.65006	2825.324		-42.22765	
33.70401	2822.953		-42.253	
33.75796	2820.591		-42.27893	
33.8119	2818.232		-42.30496	
33.86585	2815.878		-42.33064	
33.9198	2813.539		-42.35555	
33.97375	2811.233		-42.37932	
34.0277	2808.972		-42.40158	
34.08165	2806.757		-42.42201	
34.1356	2804.586		-42.44029	
34.18954	2802.451		-42.45615	
34.24349	2800.34		-42.46932	
34.29744	2798.241		-42.47961	
34.35139	2796.144		-42.48682	
34.40534	2794.041		-42.49084	
34.45929	2791.918		-42.49162	
34.51323	2789.759		-42.48912	
34.56718	2787.546		-42.48336	
34.62113	2785.277		-42.47431	
34.67508	2782.961		-42.46197	
34.72903	2780.62		-42.44632	
34.78298	2778.284		-42.42736	
34.83693	2775.971		-42.40514	
34.89087	2773.678		-42.37971	
34.94482	2771.394		-42.35112	
34.99877	2769.11		-42.3194	
35.05272	2766.819		-42.2846	
35.10667	2764.513		-42.24675	
35.16061	2762.184		-42.2059	
35.21457	2759.831		-42.16217	
35.26851	2757.457		-42.11572	
35.32246	2755.072		-42.06674	
35.37641	2752.683		-42.0155	
35.43036	2750.293		-41.96223	
35.48431	2747.907		-41.9072	
35.53825	2745.536		-41.85065	
35.5922	2743.19		-41.7928	
35.64615	2740.88		-41.73389	
35.7001	2738.607		-41.67409	
35.75405	2736.369		-41.61358	
35.80799	2734.155		-41.55252	
35.86195	2731.958		-41.49107	
35.91589	2729.769		-41.42936	
35.96984	2727.582		-41.36752	
36.02379	2725.393		-41.30566	
36.07774	2723.196		-41.24385	
36.13169	2720.982		-41.18216	
36.18563	2718.743		-41.12067	
36.23958	2716.472		-41.05947	
36.29353	2714.172		-40.99868	
36.34748	2711.853		-40.93841	
36.40143	2709.524		-40.87884	
36.45538	2707.194		-40.82015	
36.50933	2704.865		-40.76254	
36.56327	2702.538		-40.70624	
36.61722	2700.215		-40.65145	
36.67117	2697.9		-40.59837	
36.72512	2695.597		-40.54721	
36.77907	2693.311		-40.49816	
36.83302	2691.047		-40.45139	
36.88696	2688.811		-40.40705	
36.94091	2686.612		-40.36522	
36.99486	2684.451		-40.32596	
37.04881	2682.322		-40.28923	
37.10276	2680.217		-40.25497	
37.15671	2678.129		-40.22308	
37.21066	2676.057		-40.19348	
37.2646	2674.007		-40.16609	
37.31855	2671.983		-40.14084	
37.3725	2669.986		-40.11766	
37.42645	2668.011		-40.09644	
37.4804	2666.058		-40.07711	
37.53434	2664.131		-40.05962	
37.58829	2662.232		-40.04399	
37.64224	2660.356		-40.03026	
37.69619	2658.491		-40.01847	
37.75014	2656.627		-40.0087	
37.80409	2654.751		-40.00106	
37.85804	2652.842		-39.99562	
37.91198	2650.881		-39.99244	
37.96593	2648.856		-39.99154	
38.01988	2646.767		-39.99293	
38.07383	2644.624		-39.99659	
38.12778	2642.436		-40.00242	
38.18172	2640.213		-40.01031	
38.23568	2637.969		-40.02009	
38.28962	2635.717		-40.03157	
38.34357	2633.459		-40.04454	
38.39752	2631.195		-40.05879	
38.45147	2628.928		-40.0741	
38.50542	2626.659		-40.09027	
38.55936	2624.389		-40.10711	
38.61331	2622.123		-40.12444	
38.66726	2619.868		-40.14209	
38.72121	2617.625		-40.15987	
38.77516	2615.386		-40.17757	
38.82911	2613.145		-40.19496	
38.88305	2610.9		-40.21179	
38.937	2608.655		-40.22779	
38.99095	2606.416		-40.24265	
39.0449	2604.187		-40.2561	
39.09885	2601.97		-40.26782	
39.1528	2599.767		-40.27755	
39.20675	2597.573		-40.28503	
39.26069	2595.384		-40.29	
39.31464	2593.198		-40.29216	
39.36859	2591.015		-40.29126	
39.42254	2588.828		-40.28698	
39.47649	2586.631		-40.27904	
39.53043	2584.42		-40.26717	
39.58438	2582.194		-40.25117	
39.63833	2579.95		-40.23089	
39.69228	2577.694		-40.20623	
39.74623	2575.432		-40.17715	
39.80018	2573.166		-40.14374	
39.85413	2570.898		-40.10609	
39.90807	2568.627		-40.06437	
39.96202	2566.35		-40.0188	
40.01597	2564.073		-39.96962	
40.06992	2561.792		-39.91717	
40.12387	2559.508		-39.86173	
40.17781	2557.223		-39.80361	
40.23177	2554.955		-39.74308	
40.28571	2552.714		-39.68042	
40.33966	2550.503		-39.61589	
40.39361	2548.328		-39.5497	
40.44756	2546.194		-39.48207	
40.50151	2544.097		-39.41322	
40.55545	2542.02		-39.34341	
40.6094	2539.958		-39.27288	
40.66335	2537.912		-39.2019	
40.7173	2535.887		-39.13071	
40.77125	2533.887		-39.05959	
40.8252	2531.904		-38.9888	
40.87915	2529.927		-38.91866	
40.93309	2527.952		-38.8495	
40.98704	2525.973		-38.78165	
41.04099	2523.986		-38.71549	
41.09494	2521.986		-38.6514	
41.14889	2519.969		-38.58977	
41.20284	2517.936		-38.53096	
41.25678	2515.892		-38.47526	
41.31073	2513.849		-38.42292	
41.36468	2511.813		-38.3741	
41.41863	2509.785		-38.32891	
41.47258	2507.761		-38.28739	
41.52653	2505.738		-38.2495	
41.58047	2503.711		-38.21518	
41.63442	2501.676		-38.18428	
41.68837	2499.631		-38.15665	
41.74232	2497.574		-38.13209	
41.79627	2495.507		-38.11043	
41.85022	2493.434		-38.09149	
41.90416	2491.364		-38.0751	
41.95811	2489.309		-38.06112	
42.01206	2487.276		-38.04941	
42.06601	2485.265		-38.0399	
42.11996	2483.267		-38.03251	
42.17391	2481.273		-38.02717	
42.22786	2479.282		-38.0238	
42.2818	2477.289		-38.02231	
42.33575	2475.294		-38.02258	
42.3897	2473.3		-38.02446	
42.44365	2471.31		-38.02776	
42.4976	2469.324		-38.03226	
42.55154	2467.342		-38.03773	
42.6055	2465.361		-38.04391	
42.65944	2463.381		-38.05057	
42.71339	2461.402		-38.05746	
42.76734	2459.418		-38.06441	
42.82129	2457.424		-38.07126	
42.87524	2455.416		-38.0779	
42.92918	2453.398		-38.08427	
42.98313	2451.377		-38.09031	
43.03708	2449.35		-38.09599	
43.09103	2447.312		-38.10128	
43.14498	2445.251		-38.10619	
43.19893	2443.164		-38.11074	
43.25288	2441.046		-38.11495	
43.30682	2438.896		-38.11882	
43.36077	2436.708		-38.12233	
43.41472	2434.485		-38.12544	
43.46867	2432.235		-38.1281	
43.52262	2429.974		-38.13025	
43.57656	2427.721		-38.13178	
43.63051	2425.487		-38.13255	
43.68446	2423.277		-38.1324	
43.73841	2421.093		-38.13114	
43.79236	2418.93		-38.12857	
43.84631	2416.789		-38.12449	
43.90026	2414.665		-38.11868	
43.9542	2412.561		-38.1109	
44.00815	2410.478		-38.10094	
44.0621	2408.417		-38.08861	
44.11605	2406.377		-38.07376	
44.17	2404.36		-38.05633	
44.22395	2402.363		-38.03633	
44.27789	2400.385		-38.01382	
44.33184	2398.419		-37.98893	
44.38579	2396.464		-37.96185	
44.43974	2394.516		-37.93275	
44.49369	2392.575		-37.90187	
44.54764	2390.636		-37.8694	
44.60159	2388.695		-37.83554	
44.65553	2386.746		-37.8005	
44.70948	2384.783		-37.76443	
44.76343	2382.806		-37.72756	
44.81738	2380.813		-37.69006	
44.87133	2378.801		-37.65211	
44.92527	2376.768		-37.61393	
44.97923	2374.714		-37.57571	
45.03317	2372.637		-37.53764	
45.08712	2370.536		-37.49997	
45.14107	2368.414		-37.46292	
45.19502	2366.275		-37.42673	
45.24897	2364.13		-37.39166	
45.30291	2361.986		-37.35795	
45.35686	2359.847		-37.32581	
45.41081	2357.719		-37.29542	
45.46476	2355.604		-37.26696	
45.51871	2353.509		-37.24058	
45.57265	2351.443		-37.21637	
45.62661	2349.414		-37.19436	
45.68055	2347.425		-37.17456	
45.7345	2345.478		-37.1569	
45.78845	2343.574		-37.14127	
45.8424	2341.708		-37.12746	
45.89635	2339.874		-37.11523	
45.95029	2338.061		-37.10427	
46.00424	2336.255		-37.09424	
46.05819	2334.435		-37.08479	
46.11214	2332.588		-37.07558	
46.16609	2330.709		-37.06625	
46.22004	2328.799		-37.05648	
46.27399	2326.86		-37.04598	
46.32793	2324.895		-37.03451	
46.38188	2322.911		-37.02186	
46.43583	2320.919		-37.00792	
46.48978	2318.929		-36.99258	
46.54373	2316.949		-36.97582	
46.59768	2314.981		-36.95762	
46.65162	2313.021		-36.93798	
46.70557	2311.053		-36.9169	
46.75952	2309.065		-36.89437	
46.81347	2307.045		-36.87035	
46.86742	2304.983		-36.84484	
46.92137	2302.883		-36.81783	
46.97532	2300.751		-36.78933	
47.02926	2298.603		-36.75937	
47.08321	2296.455		-36.72803	
47.13716	2294.326		-36.69538	
47.19111	2292.228		-36.66155	
47.24506	2290.168		-36.62663	
47.299	2288.156		-36.59078	
47.35295	2286.192		-36.55416	
47.4069	2284.271		-36.51698	
47.46085	2282.377		-36.47945	
47.5148	2280.495		-36.4418	
47.56875	2278.606		-36.40422	
47.6227	2276.693		-36.36697	
47.67664	2274.74		-36.33018	
47.73059	2272.744		-36.29402	
47.78454	2270.705		-36.25854	
47.83849	2268.631		-36.22373	
47.89244	2266.537		-36.18956	
47.94638	2264.44		-36.15595	
48.00034	2262.356		-36.12281	
48.05428	2260.293		-36.09006	
48.10823	2258.261		-36.05761	
48.16218	2256.262		-36.02533	
48.21613	2254.295		-35.99309	
48.27008	2252.353		-35.96074	
48.32402	2250.426		-35.9281	
48.37797	2248.505		-35.89504	
48.43192	2246.579		-35.86142	
48.48587	2244.636		-35.8271	
48.53982	2242.677		-35.792	
48.59377	2240.709		-35.75603	
48.64771	2238.744		-35.71914	
48.70166	2236.792		-35.68132	
48.75561	2234.868		-35.64262	
48.80956	2232.984		-35.60308	
48.86351	2231.145		-35.56282	
48.91746	2229.349		-35.52201	
48.97141	2227.592		-35.48085	
49.02535	2225.86		-35.43961	
49.0793	2224.144		-35.39854	
49.13325	2222.431		-35.35791	
49.1872	2220.708		-35.31795	
49.24115	2218.97		-35.27884	
49.29509	2217.217		-35.24078	
49.34904	2215.443		-35.20397	
49.40299	2213.645		-35.16863	
49.45694	2211.821		-35.13499	
49.51089	2209.973		-35.10335	
49.56484	2208.104		-35.07396	
49.61879	2206.214		-35.04713	
49.67273	2204.307		-35.02316	
49.72668	2202.388		-35.00233	
49.78063	2200.46		-34.98492	
49.83458	2198.528		-34.97115	
49.88853	2196.589		-34.96121	
49.94247	2194.641		-34.9552	
49.99643	2192.682		-34.95316	
50.05037	2190.714		-34.95503	
50.10432	2188.733		-34.96067	
50.15827	2186.735		-34.96984	
50.21222	2184.721		-34.98223	
50.26617	2182.693		-34.99751	
50.32011	2180.664		-35.01526	
50.37406	2178.652		-35.03506	
50.42801	2176.677		-35.05648	
50.48196	2174.747		-35.07904	
50.53591	2172.862		-35.10224	
50.58986	2171.014		-35.12554	
50.64381	2169.192		-35.1484	
50.69775	2167.383		-35.17028	
50.7517	2165.577		-35.19065	
50.80565	2163.772		-35.20899	
50.8596	2161.971		-35.22486	
50.91355	2160.17		-35.23785	
50.96749	2158.37		-35.2476	
51.02144	2156.568		-35.25383	
51.07539	2154.763		-35.25627	
51.12934	2152.952		-35.25473	
51.18329	2151.139		-35.24905	
51.23724	2149.32		-35.2391	
51.29119	2147.499		-35.2248	
51.34513	2145.677		-35.20611	
51.39908	2143.853		-35.18309	
51.45303	2142.021		-35.15581	
51.50698	2140.171		-35.12442	
51.56093	2138.287		-35.0891	
51.61488	2136.359		-35.0501	
51.66882	2134.383		-35.00773	
51.72277	2132.363		-34.96236	
51.77672	2130.314		-34.91445	
51.83067	2128.25		-34.86446	
51.88462	2126.179		-34.8129	
51.93857	2124.11		-34.76024	
51.99252	2122.048		-34.70697	
52.04646	2119.999		-34.65353	
52.10041	2117.967		-34.60034	
52.15436	2115.955		-34.54774	
52.20831	2113.961		-34.49606	
52.26226	2111.974		-34.44553	
52.3162	2109.985		-34.3964	
52.37016	2107.991		-34.34885	
52.4241	2105.998		-34.30304	
52.47805	2104.012		-34.2591	
52.532	2102.043		-34.21716	
52.58595	2100.102		-34.17733	
52.6399	2098.204		-34.13971	
52.69384	2096.357		-34.10436	
52.74779	2094.564		-34.07134	
52.80174	2092.821		-34.04069	
52.85569	2091.115		-34.01245	
52.90964	2089.426		-33.98661	
52.96358	2087.738		-33.96315	
53.01754	2086.035		-33.94196	
53.07148	2084.312		-33.92292	
53.12543	2082.566		-33.90586	
53.17938	2080.8		-33.8906	
53.23333	2079.017		-33.87698	
53.28728	2077.229		-33.86483	
53.34122	2075.448		-33.854	
53.39517	2073.686		-33.84437	
53.44912	2071.95		-33.83577	
53.50307	2070.244		-33.82808	
53.55702	2068.566		-33.82113	
53.61097	2066.91		-33.81479	
53.66492	2065.265		-33.80894	
53.71886	2063.62		-33.80349	
53.77281	2061.964		-33.79834	
53.82676	2060.29		-33.79343	
53.88071	2058.595		-33.78872	
53.93466	2056.879		-33.78418	
53.98861	2055.138		-33.77984	
54.04255	2053.378		-33.77575	
54.0965	2051.611		-33.772	
54.15045	2049.849		-33.76871	
54.2044	2048.102		-33.76605	
54.25835	2046.37		-33.76417	
54.3123	2044.653		-33.76323	
54.36625	2042.948		-33.76336	
54.42019	2041.248		-33.76466	
54.47414	2039.542		-33.76718	
54.52809	2037.812		-33.77094	
54.58204	2036.041		-33.77596	
54.63599	2034.214		-33.78223	
54.68993	2032.328		-33.78973	
54.74389	2030.393		-33.79839	
54.79783	2028.424		-33.80811	
54.85178	2026.431		-33.81878	
54.90573	2024.422		-33.83025	
54.95968	2022.403		-33.84236	
55.01363	2020.381		-33.85493	
55.06757	2018.35		-33.86774	
55.12152	2016.303		-33.88054	
55.17547	2014.236		-33.89308	
55.22942	2012.155		-33.90506	
55.28337	2010.069		-33.91617	
55.33731	2007.989		-33.92604	
55.39127	2005.924		-33.93431	
55.44521	2003.883		-33.94054	
55.49916	2001.868		-33.94433	
55.55311	1999.886		-33.94527	
55.60706	1997.942		-33.94299	
55.66101	1996.044		-33.93712	
55.71495	1994.19		-33.92735	
55.7689	1992.376		-33.91339	
55.82285	1990.596		-33.89501	
55.8768	1988.849		-33.87204	
55.93075	1987.123		-33.84438	
55.9847	1985.414		-33.81199	
56.03865	1983.719		-33.77488	
56.09259	1982.036		-33.73316	
56.14654	1980.367		-33.68702	
