T[Â°C]	350nm [counts / mm]	S.D.
20.00117	3062.29	
20.00361	3059.845	
20.00457	3054.676	
20.01263	3058.709	
20.01442	3063.674	
20.03411	3052.022	
20.03785	3049.571	
20.06298	3056.529	
20.06799	3053.3	
20.1036	3057.742	
20.10953	3048.841	
20.15131	3040.499	
20.15844	3042.355	
20.20453	3057.881	
20.21251	3044.711	
20.26679	3042.657	
20.27921	3047.632	
20.33907	3045.291	
20.34915	3040.57	
20.41535	3041.034	
20.42588	3028.467	
20.49773	3032.094	
20.50925	3031.181	
20.58686	3022.172	
20.59889	3034.992	
20.67837	3021.541	
20.69153	3025.34	
20.7788	3023.528	
20.79223	3022.615	
20.87969	3012.484	
20.8949	3020.796	
20.9848	3016.824	
20.99876	3004.677	
21.09059	3008.792	
21.10796	3000.42	
21.20004	3010.945	
21.21531	3000.329	
21.30983	3000.991	
21.32451	2994.572	
21.4207	3005.22	
21.43547	2997.165	
21.53232	2988.732	
21.54735	2998.292	
21.64144	2984.835	
21.6561	2999.583	
21.74805	2979.795	
21.76255	2979.649	
21.85833	2982.826	
21.87291	2970.917	
21.96899	2965.598	
21.98392	2971.104	
22.07812	2961.886	
22.09299	2961.958	
22.18676	2964.977	
22.20179	2960.887	
22.29687	2955.034	
22.31168	2957.823	
22.40782	2949.195	
22.42261	2949.123	
22.51703	2948.575	
22.53148	2941.763	
22.6264	2941.864	
22.64084	2944.837	
22.73379	2940.878	
22.74849	2936.132	
22.84453	2935.962	
22.8592	2932.126	
22.95488	2924.945	
22.97005	2932.893	
23.06396	2920.781	
23.07905	2918.664	
23.17399	2922.118	
23.18831	2915.258	
23.2833	2912.244	
23.29743	2905.34	
23.39157	2905.179	
23.40677	2911.036	
23.50399	2899.544	
23.51834	2901.905	
23.61092	2903.606	
23.6255	2899.157	
23.71978	2892.396	
23.73557	2888.163	
23.83042	2889.18	
23.84494	2892.395	
23.93791	2887.116	
23.95274	2887.541	
24.04939	2882.055	
24.06423	2883.508	
24.16016	2869.36	
24.17464	2874.424	
24.26957	2863.471	
24.28437	2875.824	
24.37645	2868.365	
24.39142	2866.192	
24.48659	2867.209	
24.50121	2851.554	
24.59798	2862.116	
24.61291	2856.967	
24.7071	2856.392	
24.7219	2859.091	
24.81734	2839.091	
24.83231	2852.321	
24.92564	2844.617	
24.94079	2843.44	
25.03478	2853.278	
25.04921	2836.597	
25.14418	2840.957	
25.1588	2841.366	
25.25452	2824.132	
25.26945	2822.552	
25.36387	2826.365	
25.37925	2819.151	
25.47333	2817.372	
25.48808	2808.798	
25.58244	2814.344	
25.59722	2816.138	
25.69265	2814.506	
25.70738	2809.952	
25.80005	2808.132	
25.81458	2804.943	
25.91046	2799.566	
25.92569	2804.199	
26.02121	2797.653	
26.03567	2797.287	
26.12802	2793.737	
26.14261	2795.955	
26.23962	2788.458	
26.25486	2789.773	
26.35128	2794.209	
26.36565	2784.613	
26.45873	2775.552	
26.47351	2775.858	
26.56733	2771.308	
26.58198	2776.011	
26.67712	2763.071	
26.69242	2767.587	
26.78752	2762.127	
26.80179	2757.517	
26.89524	2757.61	
26.90996	2753.28	
27.00585	2760.188	
27.02084	2756.131	
27.11707	2742.561	
27.1318	2751.65	
27.2239	2747.601	
27.23922	2744.168	
27.33526	2739.518	
27.34968	2734.696	
27.44331	2743.915	
27.45782	2740.586	
27.55359	2735.318	
27.56822	2731.849	
27.66384	2731.827	
27.6786	2739.004	
27.77431	2731.003	
27.78874	2721.176	
27.88093	2725.833	
27.89616	2723.808	
27.98965	2718.461	
28.00431	2723.6	
28.10035	2711.327	
28.11502	2714.478	
28.21185	2709.088	
28.22644	2706.961	
28.31899	2706.805	
28.33306	2700.522	
28.42847	2698.901	
28.4438	2699	
28.539	2692.273	
28.55381	2690.564	
28.64784	2693.906	
28.66247	2682.72	
28.75752	2687.332	
28.77248	2682.374	
28.8679	2687.113	
28.88303	2683.785	
28.97559	2670.657	
28.99072	2666.775	
29.08759	2675.235	
29.10229	2673.789	
29.19426	2666.311	
29.20894	2663.328	
29.30364	2665.169	
29.31841	2663.751	
29.41348	2657.146	
29.42824	2658.938	
29.52506	2649.319	
29.53947	2656.347	
29.63241	2640.338	
29.64714	2643.462	
29.74219	2653.505	
29.75724	2644.91	
29.85213	2643.162	
29.86748	2644.834	
29.96258	2633.129	
29.97671	2637.924	
30.07063	2632.241	
30.08816	2624.662	
30.17967	2627.422	
30.19444	2620.088	
30.28854	2630.232	
30.30366	2620.363	
30.39878	2619.697	
30.41347	2615.458	
30.50933	2610.947	
30.52429	2611.887	
30.61656	2611.089	
30.63138	2607.469	
30.72658	2608.963	
30.74181	2604.155	
30.8353	2606.65	
30.84994	2599.706	
30.94524	2606.964	
30.95995	2591.452	
31.05347	2598.223	
31.06848	2592.906	
31.16529	2590.283	
31.17952	2591.69	
31.27401	2579.6	
31.28849	2585.603	
31.38201	2581.21	
31.39843	2580.762	
31.49182	2577.74	
31.5062	2566.123	
31.60284	2570.507	
31.61785	2561.799	
31.71205	2566.629	
31.72666	2557.061	
31.8222	2562.397	
31.83652	2565.702	
31.93264	2557.984	
31.94769	2556.467	
32.04237	2546.493	
32.05735	2544.385	
32.15024	2548.999	
32.16516	2541.451	
32.25884	2541.221	
32.2733	2533.915	
32.36992	2537.585	
32.3851	2539.826	
32.47948	2538.468	
32.49392	2533.208	
32.5898	2532.763	
32.60434	2530.369	
32.69862	2524.455	
32.713	2527.559	
32.80673	2522.134	
32.82282	2520.155	
32.91868	2520.736	
32.93351	2517.316	
33.02551	2514.591	
33.04005	2508.786	
33.13582	2510.468	
33.15067	2502.17	
33.24487	2503.41	
33.25977	2506.38	
33.35709	2490.37	
33.37215	2493.822	
33.46334	2495.518	
33.47794	2495.984	
33.57278	2487.965	
33.58775	2491.551	
33.68606	2480.843	
33.70047	2478.794	
33.79402	2482.968	
33.80878	2476.836	
33.90195	2483.482	
33.91762	2470.911	
34.01162	2468.757	
34.02643	2476.388	
34.12217	2479.38	
34.13715	2470.045	
34.23054	2473.96	
34.24502	2464.175	
34.34029	2465.875	
34.35644	2460.646	
34.45046	2447.976	
34.46543	2456.938	
34.55889	2445.62	
34.5732	2457.596	
34.66734	2446.634	
34.68244	2440.914	
34.77903	2448.422	
34.79387	2440.559	
34.88652	2445.174	
34.90091	2441.726	
34.99697	2437.594	
35.01196	2437.535	
35.10634	2430.972	
35.12114	2434.856	
35.21605	2432.784	
35.23086	2421.495	
35.32423	2425.825	
35.34035	2423.527	
35.43536	2418.423	
35.44992	2415.944	
35.54399	2412.104	
35.55841	2410.299	
35.65368	2413.47	
35.66853	2410.794	
35.76486	2405.666	
35.78084	2405.975	
35.8731	2398.568	
35.88766	2404.992	
35.98088	2400.705	
35.9956	2394.498	
36.09085	2393.662	
36.10539	2385.844	
36.20037	2388.479	
36.21479	2388.589	
36.31055	2389.785	
36.3266	2390.745	
36.41854	2381.635	
36.43357	2376.768	
36.52749	2374.419	
36.54204	2373.265	
36.63743	2373.021	
36.65202	2368.937	
36.7461	2362.35	
36.76071	2353.725	
36.85657	2367.634	
36.87166	2359.537	
36.96532	2352.908	
36.98015	2358.709	
37.07475	2350.601	
37.0895	2351.605	
37.1866	2349.778	
37.20107	2352.968	
37.2945	2345.785	
37.30929	2354.929	
37.40411	2352.178	
37.41907	2349.317	
37.51195	2346.469	
37.52955	2324.12	
37.62166	2328.586	
37.63647	2336.969	
37.73174	2325.356	
37.74647	2329.02	
37.84151	2330.238	
37.85708	2322.825	
37.95138	2322.629	
37.96795	2323.914	
38.06054	2320.751	
38.0749	2316.579	
38.16946	2313.324	
38.18565	2311.17	
38.2794	2310.201	
38.29433	2312.657	
38.38993	2303.59	
38.40471	2302.784	
38.50001	2301.583	
38.51446	2300.23	
38.60899	2298.56	
38.62371	2294.834	
38.7179	2284.703	
38.73388	2285.24	
38.82615	2282.947	
38.841	2285.392	
38.93638	2286.51	
38.95106	2279.074	
39.04472	2280.179	
39.06355	2280.082	
39.15648	2271.938	
39.17136	2275.739	
39.26421	2266.404	
39.27917	2269.435	
39.37292	2270.208	
39.38761	2265.64	
39.48271	2261.067	
39.49804	2263.576	
39.59126	2254.17	
39.60573	2258.826	
39.70192	2260.105	
39.71656	2250.612	
39.81063	2252.417	
39.82492	2245.441	
39.92045	2242.792	
39.93538	2245.753	
40.03121	2234.135	
40.04708	2241.267	
40.14101	2240.589	
40.15535	2236.596	
40.24689	2240.959	
40.26218	2230.943	
40.35954	2234.403	
40.37436	2223.55	
40.46685	2217.347	
40.48138	2230.297	
40.57697	2226.083	
40.59493	2223.511	
40.68842	2233.247	
40.70332	2205.187	
40.79666	2223.03	
40.81123	2217.875	
40.90557	2213.085	
40.92019	2211.786	
41.01567	2206.221	
41.03043	2211.23	
41.12608	2199.19	
41.14213	2205.796	
41.23441	2199.014	
41.24903	2190.709	
41.3435	2195.077	
41.35801	2185.637	
41.45268	2194.612	
41.46731	2192.48	
41.56312	2186.075	
41.57814	2184.88	
41.66997	2187.076	
41.68708	2181.27	
41.7832	2175.375	
41.79802	2175.083	
41.89552	2176.271	
41.90989	2169.107	
42.00445	2173.28	
42.0188	2166.02	
42.11249	2167.463	
42.12815	2161.842	
42.22283	2159.8	
42.23807	2148.512	
42.3306	2158.098	
42.3455	2156.609	
42.44179	2157.285	
42.45641	2154.02	
42.55014	2149.302	
42.56465	2146.783	
42.66014	2151.044	
42.67518	2137.644	
42.77002	2146.739	
42.78437	2143.077	
42.87834	2139.446	
42.89309	2140.378	
42.98855	2135.31	
43.00392	2128.198	
43.09689	2127.982	
43.11444	2128.572	
43.21043	2120.463	
43.22515	2124.583	
43.32132	2118.327	
43.33648	2120.437	
43.43024	2116.302	
43.44497	2111.36	
43.53869	2107.982	
43.55338	2114.632	
43.64964	2111.215	
43.66479	2106.825	
43.76037	2107.804	
43.77482	2104.715	
43.86827	2105.586	
43.88291	2101.75	
43.97692	2104.593	
43.99152	2101.019	
44.0883	2099.812	
44.10371	2090.783	
44.19681	2090.522	
44.2114	2091.865	
44.30694	2075.944	
44.32212	2079.538	
44.41637	2083.972	
44.43134	2077.499	
44.52537	2078.562	
44.53984	2081.217	
44.63576	2077.625	
44.6501	2073.497	
44.74234	2068.202	
44.75755	2069.311	
44.85318	2069.23	
44.86821	2059.124	
44.96237	2067.122	
44.97979	2061.434	
45.07239	2063.362	
45.08745	2059.236	
45.18032	2058.47	
45.195	2045.862	
45.29087	2054.899	
45.30593	2053.19	
45.40011	2048.936	
45.41495	2037.094	
45.50853	2052.375	
45.52306	2049.542	
45.61887	2039.022	
45.63378	2034.385	
45.72692	2037.374	
45.74464	2035.346	
45.83747	2038.206	
45.85233	2035.003	
45.94778	2030.742	
45.96251	2024.602	
46.05602	2025.487	
46.0708	2021.862	
46.16561	2025.365	
46.18027	2015.076	
46.27602	2011.786	
46.29089	2010.689	
46.38529	2009.815	
46.40117	2005.527	
46.49314	2003.083	
46.50985	2001.187	
46.60382	2005.279	
46.61873	2009.191	
46.71301	2005.667	
46.72761	2000.555	
46.82178	1999.025	
46.83712	1993.77	
46.93138	1995.535	
46.946	1992.427	
47.03998	1987.606	
47.05565	1980.631	
47.15108	1985.718	
47.16611	1988.028	
47.26228	1990.399	
47.27711	1971.927	
47.37098	1990.217	
47.38557	1976.141	
47.47744	1982.725	
47.49319	1978.209	
47.58992	1971.274	
47.60456	1974.272	
47.69923	1963.834	
47.71421	1968.394	
47.80634	1958.758	
47.82082	1958.513	
47.9174	1965.965	
47.93229	1955.785	
48.02725	1953.878	
48.04448	1950.777	
48.13804	1952.78	
48.15295	1945.451	
48.24765	1949.407	
48.2624	1946.335	
48.35794	1945.24	
48.37246	1944.258	
48.46487	1945.643	
48.47982	1935.773	
48.57598	1940.306	
48.59261	1936.554	
48.68658	1927.492	
48.70129	1921.413	
48.79506	1928.177	
48.8091	1920.846	
48.90398	1924.925	
48.91879	1921.04	
49.01301	1925.52	
49.02759	1920.871	
49.12352	1919.14	
49.13812	1914.566	
49.23246	1915.582	
49.24726	1915.74	
49.34186	1911.46	
49.35898	1904.091	
49.45252	1907.497	
49.46727	1905.612	
49.56243	1906.79	
49.5769	1898.093	
49.67031	1898.317	
49.68658	1896.476	
49.78075	1893.861	
49.79588	1889.46	
49.89086	1891.553	
49.90557	1886.462	
49.99839	1886.648	
50.01345	1882.126	
50.10981	1885.011	
50.12419	1884.798	
50.21889	1883.077	
50.23587	1871.345	
50.3284	1878.692	
50.34304	1871.952	
50.43763	1872.745	
50.45219	1872.996	
50.54591	1869.257	
50.56064	1876.18	
50.65533	1874.486	
50.67041	1864.484	
50.765	1866.358	
50.78158	1857.709	
50.87466	1859.385	
50.88938	1853.791	
50.98425	1857.675	
51.00077	1850.848	
51.09391	1853.529	
51.1086	1854.704	
51.20562	1846.536	
51.22054	1847.344	
51.31509	1840.478	
51.33135	1841.039	
51.42151	1842.345	
51.43953	1836.546	
51.53169	1840.131	
51.54627	1835.568	
51.64204	1837.925	
51.65702	1831.995	
51.75165	1833.144	
51.76645	1825.412	
51.86167	1832.388	
51.8764	1825.687	
51.9711	1818.533	
51.9871	1814.864	
52.07939	1820.455	
52.09475	1815.572	
52.19013	1818.154	
52.20449	1809.003	
52.29914	1813.179	
52.31405	1807.71	
52.40843	1808.899	
52.42316	1803.685	
52.51875	1807.924	
52.53388	1802.514	
52.62891	1796.757	
52.64372	1800.644	
52.73836	1797.143	
52.75256	1793.049	
52.84546	1789.327	
52.85979	1791.032	
52.95741	1791.47	
52.97261	1787.81	
53.06589	1782.092	
53.08046	1782.418	
53.17487	1782.086	
53.18967	1779.693	
53.28383	1781.297	
53.29857	1772.319	
53.39353	1777.9	
53.40828	1770.217	
53.50459	1772.156	
53.5197	1765.664	
53.613	1772.898	
53.62742	1769.787	
53.72079	1768.432	
53.7354	1760.901	
53.83374	1757.651	
53.84861	1753.724	
53.94188	1753.795	
53.95681	1751.116	
54.05221	1756.806	
54.06678	1748.356	
54.16015	1753.993	
54.17515	1748.317	
54.27191	1751.197	
54.28691	1746.007	
54.38088	1748.581	
54.39545	1741.928	
54.49036	1741.962	
54.50526	1741.083	
54.60101	1738.058	
54.61563	1734.859	
54.71084	1730.239	
54.72568	1731.124	
54.81942	1729.33	
54.83458	1731.62	
54.92955	1726.538	
54.94396	1717.168	
55.03874	1718.247	
55.05343	1713.947	
55.14832	1723.972	
55.16352	1714.086	
55.25993	1721.201	
55.27424	1715.806	
55.36793	1706.104	
55.38255	1708.06	
55.47812	1711.69	
55.49316	1707.264	
55.58813	1705.907	
55.6026	1699.964	
55.69463	1702.09	
55.70992	1692.695	
55.80648	1700.204	
55.82112	1694.652	
55.91623	1694.898	
55.93058	1690.344	
56.02292	1690.815	
56.03784	1689.65	
56.13403	1684.338	
56.14856	1684.909	
56.24621	1687.9	
56.26091	1685.042	
56.35251	1678.142	
56.36725	1674.854	
56.4636	1679.979	
56.4784	1675.132	
56.57443	1676.954	
56.58907	1666.548	
56.68114	1666.928	
56.69569	1665.303	
56.79041	1664.037	
56.80543	1664.547	
56.90348	1660.656	
56.91798	1659.896	
57.01192	1660.91	
57.02859	1651.229	
57.11892	1658.832	
57.13388	1651.966	
57.23232	1655.126	
57.24763	1654.748	
57.34028	1647.174	
57.35523	1644.35	
57.44987	1648.304	
57.46478	1639.108	
57.55971	1643.084	
57.57445	1638.655	
57.66793	1637.647	
57.68288	1636.317	
57.77904	1642.229	
57.79445	1632.522	
57.88836	1639.859	
57.9065	1629.411	
58.00156	1628.021	
58.01821	1628.547	
58.11002	1622.208	
58.12512	1626.324	
58.22146	1624.489	
58.23632	1618.745	
58.33201	1615.614	
58.34649	1623.32	
58.43813	1616.875	
58.45301	1607.452	
58.54826	1608.947	
58.56524	1606.483	
58.65961	1613.103	
58.67451	1602.893	
58.76884	1611.503	
58.78429	1600.644	
58.87679	1602.625	
58.89368	1593.494	
58.98951	1596.437	
59.00418	1594.053	
59.09897	1599.839	
59.11381	1588.413	
59.20745	1591.629	
59.22174	1589.713	
59.32141	1588.003	
59.33635	1581.389	
59.42958	1584.589	
59.44399	1580.661	
59.53857	1579.9	
59.55358	1575.235	
59.65056	1583.698	
59.66607	1574.429	
59.75723	1577.309	
59.77412	1570.383	
59.86845	1574.514	
59.88328	1566.824	
59.97714	1572.158	
59.99201	1565.025	
60.08801	1561.234	
60.10234	1559.722	
60.19715	1559.408	
60.21152	1558.62	
60.3054	1553.416	
60.32025	1554.935	
60.41683	1553.926	
60.43147	1551.87	
60.52566	1547.558	
60.54187	1546.727	
60.63424	1556.418	
60.64878	1545.514	
60.74513	1549.792	
60.76196	1541.703	
60.85556	1536.955	
60.86983	1536.859	
60.96802	1533.593	
60.98268	1529.459	
61.08154	1534.261	
61.09656	1531.311	
61.18966	1530.138	
61.20379	1529.583	
61.30153	1529.083	
61.31672	1527.094	
61.40803	1529.313	
61.42292	1521.167	
61.51999	1527	
61.53438	1519.835	
61.62938	1520.423	
61.6444	1513.434	
61.73711	1515.176	
61.75137	1518.203	
61.84755	1514.332	
61.86259	1510.854	
61.95835	1513.623	
61.97281	1503.095	
62.06469	1508.84	
62.07961	1502.118	
62.17595	1507.126	
62.19283	1497.614	
62.2853	1506.287	
62.29994	1493.827	
62.39369	1504.563	
62.40839	1495	
62.50512	1500.71	
62.51999	1495.73	
62.61701	1496.258	
62.63207	1486.002	
62.7267	1492.873	
62.74087	1481.872	
62.83629	1488.527	
62.85094	1482.094	
62.94586	1482.474	
62.96054	1474.936	
63.05509	1484.294	
63.07098	1478.218	
63.16535	1477.537	
63.18032	1472.597	
63.27452	1472.913	
63.28945	1468.186	
63.38441	1474.7	
63.39938	1470.176	
63.49517	1470.758	
63.51213	1465.742	
63.60191	1467.829	
63.61691	1461.109	
63.71227	1466.625	
63.72752	1456.497	
63.82281	1465.539	
63.83769	1460.768	
63.93023	1461.126	
63.94463	1455.083	
64.04095	1457.535	
64.05577	1450.664	
64.14979	1449.892	
64.16495	1448.347	
64.26187	1450.99	
64.2765	1447.29	
64.37084	1448.842	
64.38557	1442.23	
64.48066	1451.598	
64.49576	1448.639	
64.59351	1444.376	
64.60796	1448.936	
64.70461	1442.265	
64.7196	1443.672	
64.81165	1439.937	
64.82829	1429.614	
64.92405	1440.692	
64.93894	1437.111	
65.03223	1436.321	
65.04721	1436.555	
65.14141	1439.475	
65.15602	1431.71	
65.25323	1438.526	
65.26788	1434.86	
65.36257	1439.209	
65.37772	1434.714	
65.47073	1431.519	
65.48542	1433.117	
65.58067	1435.173	
65.5952	1429.921	
65.69038	1426.217	
65.70609	1428.27	
65.7981	1431.624	
65.81288	1428.809	
65.90921	1436.746	
65.92442	1427.245	
66.01845	1433	
66.03316	1428.415	
66.12899	1432.595	
66.14385	1429.221	
66.23903	1432.274	
66.25371	1430.646	
66.35029	1439.141	
66.36499	1428.827	
66.45542	1435.05	
66.46996	1429.238	
66.56633	1432.721	
66.58359	1429.303	
66.68042	1436.08	
66.69541	1436.436	
66.78841	1442.771	
66.80528	1441.767	
66.89781	1439.037	
66.91289	1435.564	
67.00707	1453.135	
67.02229	1445.34	
67.11879	1443.807	
67.13337	1445.925	
67.22808	1456.352	
67.24393	1449.615	
67.3352	1455.96	
67.34944	1456.936	
67.44646	1463.484	
67.46133	1453.645	
67.55652	1470.934	
67.5717	1463.329	
67.66425	1477.529	
67.67918	1477.402	
67.77431	1483.99	
67.78944	1476.004	
67.88588	1488.398	
67.90079	1483.22	
67.99361	1498.415	
68.01031	1492.697	
68.10235	1500.444	
68.11711	1498.562	
68.21445	1518	
68.22959	1515.046	
68.32143	1526.719	
68.33598	1520.149	
68.43285	1534.237	
68.44748	1534.809	
68.54227	1547.039	
68.55734	1545.948	
68.64923	1559.342	
68.66428	1556.575	
68.76183	1572.635	
68.77627	1575.832	
68.86884	1593.491	
68.88442	1589.588	
68.98173	1604.18	
68.9961	1600.657	
69.09049	1618.038	
69.1046	1617.499	
69.19654	1632.875	
69.21173	1630.691	
69.30857	1657.444	
69.32346	1653.94	
69.41768	1672.628	
69.43176	1679.083	
69.52843	1691.824	
69.54331	1698.937	
69.63905	1710.716	
69.65351	1716.938	
69.74715	1736.272	
69.76215	1739.774	
69.85641	1762.827	
69.87107	1757.866	
69.9669	1788.363	
69.98075	1784.867	
70.07597	1813.432	
70.09238	1811.334	
70.18274	1841.164	
70.19704	1844.598	
70.29617	1868.697	
70.31123	1865.577	
70.40377	1898.081	
70.41944	1896.245	
70.51415	1925.263	
70.52924	1923.534	
70.62556	1956.496	
70.64034	1960.219	
70.73426	1988.819	
70.74998	1990.455	
70.84155	2023.806	
70.85977	2023.846	
70.95361	2055.234	
70.96799	2059.675	
71.06213	2096.755	
71.08006	2094.929	
71.17436	2133.575	
71.1892	2126.004	
71.28473	2166.741	
71.29956	2171.242	
71.39594	2203.34	
71.41213	2204.521	
71.50311	2243.693	
71.51823	2252.493	
71.61364	2291.442	
71.62792	2292.319	
71.72556	2321.648	
71.74278	2326.342	
71.83539	2362.892	
71.84972	2364.629	
71.94559	2416.839	
71.96019	2411.694	
72.05559	2453.188	
72.07149	2452.943	
72.16595	2497.198	
72.18061	2494.7	
72.27528	2535.38	
72.28992	2535.765	
72.38343	2582.186	
72.39967	2584.931	
72.49344	2626.83	
72.50803	2620.43	
72.60472	2660.627	
72.61961	2651.269	
72.71408	2682.935	
72.73074	2687.154	
72.82418	2720.608	
72.83907	2727.649	
72.93066	2764.451	
72.94505	2756.799	
73.0415	2789.862	
73.05632	2780.456	
73.15322	2807.717	
73.16781	2809.287	
73.26254	2837.371	
73.27682	2827.548	
73.37122	2855.7	
73.38584	2854.135	
73.481	2882.171	
73.49558	2865.857	
73.58932	2902.837	
73.60497	2886.284	
73.69884	2916.511	
73.71366	2901.436	
73.81282	2923.457	
73.8278	2924.912	
73.9217	2933.837	
73.9379	2933.118	
74.03283	2944.619	
74.04752	2943.649	
74.14607	2969.148	
74.16109	2949.574	
74.25494	2970.878	
74.2728	2964.057	
74.36926	2984.279	
74.38375	2970.542	
74.47751	2990.121	
74.49306	2978.151	
74.58564	3000.053	
74.60087	2994.74	
74.6963	3002.031	
74.71422	2994.375	
74.81121	3004.899	
74.82611	3001.931	
74.91998	3021.131	
74.93729	3011.084	
75.0311	3035.965	
75.0462	3013.274	
75.13985	3037.491	
75.15704	3029.807	
75.25324	3032.087	
75.26817	3017.69	
75.36224	3048.134	
75.37973	3023.672	
75.47527	3051.081	
75.48984	3042.852	
75.58533	3053.373	
75.60181	3046.455	
75.69344	3061.347	
75.70908	3053.364	
75.80437	3066.124	
75.82236	3058.131	
75.91719	3065.726	
75.93177	3055.591	
76.02753	3083.723	
76.04489	3058.028	
76.14058	3086.73	
76.15543	3067.806	
76.2469	3094.339	
76.2653	3066.804	
76.3627	3092.228	
76.37742	3076.486	
76.47235	3097.513	
76.48977	3076.396	
76.58498	3088.127	
76.60007	3085.993	
76.69431	3098.582	
76.71183	3085.909	
76.80831	3095.678	
76.82487	3090.636	
76.91615	3100.937	
76.933	3094.891	
77.02999	3103.267	
77.0452	3096.488	
77.14194	3122.847	
77.16002	3096.738	
77.25336	3114.498	
77.26793	3115.118	
77.36385	3114.881	
77.38116	3107.337	
77.47797	3114.077	
77.49293	3107.02	
