T[Â°C]	330nm [counts / mm]	S.D.	First derivative	S.D. of first derivative
20.00117	3460.86		-49.49348	
20.05512	3458.153		-49.46232	
20.10906	3455.455		-49.43052	
20.16301	3452.763		-49.39807	
20.21696	3450.08		-49.36494	
20.27091	3447.403		-49.33115	
20.32486	3444.734		-49.29667	
20.3788	3442.071		-49.2615	
20.43275	3439.414		-49.22564	
20.4867	3436.763		-49.1891	
20.54065	3434.115		-49.15187	
20.59459	3431.472		-49.11398	
20.64854	3428.83		-49.07541	
20.70249	3426.191		-49.03619	
20.75644	3423.553		-48.99633	
20.81039	3420.917		-48.95586	
20.86433	3418.286		-48.91478	
20.91828	3415.669		-48.87313	
20.97223	3413.09		-48.83093	
21.02618	3410.624		-48.78822	
21.08013	3408.154		-48.74501	
21.13407	3405.667		-48.70137	
21.18802	3403.154		-48.65731	
21.24197	3400.604		-48.61288	
21.29592	3398.01		-48.56813	
21.34986	3395.362		-48.5231	
21.40381	3392.662		-48.47783	
21.45776	3389.919		-48.43237	
21.51171	3387.14		-48.38677	
21.56566	3384.343		-48.34107	
21.6196	3381.545		-48.29532	
21.67355	3378.753		-48.24958	
21.7275	3375.967		-48.2039	
21.78145	3373.18		-48.15832	
21.8354	3370.39		-48.11289	
21.88934	3367.599		-48.06766	
21.94329	3364.814		-48.02267	
21.99724	3362.047		-47.97797	
22.05119	3359.304		-47.93359	
22.10513	3356.584		-47.88955	
22.15908	3353.879		-47.84585	
22.21303	3351.187		-47.80246	
22.26698	3348.511		-47.75926	
22.32093	3345.862		-47.71607	
22.37487	3343.25		-47.67252	
22.42882	3340.677		-47.62802	
22.48277	3338.148		-47.58169	
22.53672	3335.661		-47.53236	
22.59066	3333.209		-47.47876	
22.64461	3330.783		-47.41768	
22.69856	3328.374		-47.35637	
22.75251	3325.969		-47.29483	
22.80646	3323.553		-47.23315	
22.8604	3321.106		-47.17139	
22.91435	3318.623		-47.10968	
22.9683	3316.111		-47.04816	
23.02225	3313.581		-46.98697	
23.07619	3311.046		-46.9263	
23.13014	3308.521		-46.86637	
23.18409	3306.015		-46.80743	
23.23804	3303.538		-46.74974	
23.29199	3301.086		-46.69362	
23.34593	3298.649		-46.63939	
23.39988	3296.213		-46.58737	
23.45383	3293.766		-46.53792	
23.50778	3291.302		-46.49137	
23.56173	3288.826		-46.44801	
23.61567	3286.347		-46.40809	
23.66962	3283.87		-46.3718	
23.72357	3281.399		-46.33923	
23.77752	3278.938		-46.3104	
23.83146	3276.488		-46.28528	
23.88541	3274.053		-46.26376	
23.93936	3271.63		-46.24572	
23.99331	3269.221		-46.23098	
24.04726	3266.829		-46.21931	
24.1012	3264.448		-46.21046	
24.15515	3262.07		-46.20414	
24.2091	3259.685		-46.20002	
24.26305	3257.287		-46.19776	
24.317	3254.873		-46.19699	
24.37094	3252.436		-46.19735	
24.42489	3249.972		-46.19843	
24.47884	3247.481		-46.19981	
24.53279	3244.966		-46.20107	
24.58673	3242.435		-46.20174	
24.64068	3239.897		-46.20133	
24.69463	3237.366		-46.19937	
24.74858	3234.851		-46.19543	
24.80253	3232.346		-46.1891	
24.85647	3229.843		-46.18002	
24.91042	3227.339		-46.16784	
24.96437	3224.829		-46.15225	
25.01832	3222.312		-46.13301	
25.07227	3219.784		-46.10992	
25.12621	3217.249		-46.08288	
25.18016	3214.71		-46.05186	
25.23411	3212.174		-46.01694	
25.28806	3209.641		-45.97824	
25.342	3207.107		-45.93602	
25.39595	3204.567		-45.89058	
25.4499	3202.018		-45.84234	
25.50385	3199.463		-45.79181	
25.55779	3196.909		-45.73953	
25.61174	3194.354		-45.68605	
25.66569	3191.798		-45.63189	
25.71964	3189.24		-45.57755	
25.77359	3186.675		-45.52341	
25.82753	3184.107		-45.46986	
25.88148	3181.536		-45.41717	
25.93543	3178.958		-45.36562	
25.98938	3176.372		-45.31543	
26.04333	3173.781		-45.2668	
26.09727	3171.187		-45.21988	
26.15122	3168.594		-45.17478	
26.20517	3166.012		-45.13157	
26.25912	3163.45		-45.09031	
26.31306	3160.917		-45.05098	
26.36701	3158.412		-45.01358	
26.42096	3155.929		-44.97802	
26.47491	3153.459		-44.94419	
26.52886	3151.002		-44.91195	
26.5828	3148.563		-44.88113	
26.63675	3146.155		-44.85157	
26.6907	3143.786		-44.82309	
26.74465	3141.462		-44.79556	
26.7986	3139.177		-44.76884	
26.85254	3136.924		-44.74281	
26.90649	3134.698		-44.71733	
26.96044	3132.499		-44.69227	
27.01439	3130.324		-44.66752	
27.06833	3128.173		-44.64299	
27.12228	3126.049		-44.61861	
27.17623	3123.949		-44.59431	
27.23018	3121.861		-44.57004	
27.28413	3119.774		-44.54574	
27.33807	3117.672		-44.52136	
27.39202	3115.541		-44.49689	
27.44597	3113.373		-44.47237	
27.49992	3111.158		-44.44792	
27.55387	3108.894		-44.42369	
27.60781	3106.584		-44.39988	
27.66176	3104.228		-44.37672	
27.71571	3101.833		-44.35449	
27.76966	3099.411		-44.33344	
27.8236	3096.973		-44.31381	
27.87755	3094.53		-44.29588	
27.9315	3092.083		-44.2799	
27.98545	3089.627		-44.26611	
28.03939	3087.155		-44.2548	
28.09334	3084.656		-44.24619	
28.14729	3082.125		-44.24048	
28.20124	3079.568		-44.23784	
28.25519	3076.997		-44.23834	
28.30913	3074.426		-44.242	
28.36308	3071.864		-44.24876	
28.41703	3069.315		-44.25846	
28.47098	3066.776		-44.27086	
28.52493	3064.244		-44.28563	
28.57887	3061.715		-44.3024	
28.63282	3059.19		-44.32078	
28.68677	3056.673		-44.34035	
28.74072	3054.168		-44.36067	
28.79466	3051.672		-44.38132	
28.84861	3049.182		-44.40186	
28.90256	3046.698		-44.42184	
28.95651	3044.226		-44.4408	
29.01046	3041.772		-44.45826	
29.0644	3039.349		-44.47381	
29.11835	3036.96		-44.48706	
29.1723	3034.593		-44.49766	
29.22625	3032.238		-44.50531	
29.2802	3029.885		-44.50974	
29.33414	3027.526		-44.51072	
29.38809	3025.162		-44.50806	
29.44204	3022.795		-44.50163	
29.49599	3020.433		-44.49135	
29.54993	3018.08		-44.47717	
29.60388	3015.737		-44.45905	
29.65783	3013.395		-44.43701	
29.71178	3011.048		-44.41107	
29.76573	3008.696		-44.38129	
29.81967	3006.345		-44.34777	
29.87362	3004.003		-44.31067	
29.92757	3001.679		-44.27027	
29.98152	2999.374		-44.22691	
30.03547	2997.086		-44.18101	
30.08941	2994.807		-44.13304	
30.14336	2992.534		-44.08346	
30.19731	2990.262		-44.03275	
30.25126	2987.979		-43.98137	
30.3052	2985.672		-43.92973	
30.35915	2983.34		-43.87825	
30.4131	2980.982		-43.82727	
30.46705	2978.6		-43.77708	
30.521	2976.194		-43.72791	
30.57494	2973.767		-43.67998	
30.62889	2971.327		-43.63344	
30.68284	2968.883		-43.58842	
30.73679	2966.444		-43.54502	
30.79074	2964.013		-43.50333	
30.84468	2961.59		-43.46338	
30.89863	2959.173		-43.4252	
30.95258	2956.763		-43.38876	
31.00653	2954.361		-43.35405	
31.06047	2951.967		-43.32101	
31.11442	2949.581		-43.28958	
31.16837	2947.2		-43.2597	
31.22232	2944.827		-43.23132	
31.27626	2942.459		-43.20435	
31.33021	2940.089		-43.17873	
31.38416	2937.709		-43.15442	
31.43811	2935.316		-43.13137	
31.49206	2932.913		-43.10955	
31.546	2930.515		-43.08891	
31.59995	2928.139		-43.06934	
31.6539	2925.795		-43.05069	
31.70785	2923.49		-43.03272	
31.7618	2921.222		-43.01514	
31.81574	2918.982		-42.99763	
31.86969	2916.761		-42.97985	
31.92364	2914.548		-42.96149	
31.97759	2912.331		-42.94228	
32.03154	2910.1		-42.92194	
32.08548	2907.854		-42.90025	
32.13943	2905.603		-42.87694	
32.19338	2903.351		-42.85179	
32.24733	2901.095		-42.8246	
32.30127	2898.84		-42.79523	
32.35522	2896.588		-42.76361	
32.40917	2894.34		-42.72975	
32.46312	2892.09		-42.69369	
32.51706	2889.824		-42.65556	
32.57101	2887.536		-42.6155	
32.62496	2885.229		-42.57371	
32.67891	2882.916		-42.53041	
32.73286	2880.606		-42.48589	
32.7868	2878.305		-42.4404	
32.84075	2876.017		-42.39422	
32.8947	2873.744		-42.34763	
32.94865	2871.484		-42.30088	
33.00259	2869.234		-42.25418	
33.05654	2866.991		-42.20776	
33.11049	2864.752		-42.1618	
33.16444	2862.512		-42.11648	
33.21839	2860.267		-42.072	
33.27234	2858.012		-42.02855	
33.32628	2855.747		-41.98632	
33.38023	2853.464		-41.94556	
33.43418	2851.152		-41.9065	
33.48812	2848.813		-41.86937	
33.54207	2846.445		-41.83436	
33.59602	2844.05		-41.80164	
33.64997	2841.639		-41.7713	
33.70392	2839.226		-41.74341	
33.75787	2836.825		-41.71799	
33.81181	2834.442		-41.69498	
33.86576	2832.085		-41.67431	
33.91971	2829.755		-41.65582	
33.97366	2827.445		-41.63929	
34.0276	2825.147		-41.62446	
34.08155	2822.855		-41.61103	
34.1355	2820.564		-41.59866	
34.18945	2818.271		-41.58695	
34.2434	2815.981		-41.57554	
34.29734	2813.701		-41.56404	
34.35129	2811.445		-41.55212	
34.40524	2809.228		-41.53951	
34.45919	2807.054		-41.52599	
34.51313	2804.916		-41.51143	
34.56708	2802.807		-41.49572	
34.62103	2800.721		-41.47881	
34.67498	2798.657		-41.46072	
34.72893	2796.615		-41.44149	
34.78288	2794.593		-41.42123	
34.83682	2792.587		-41.40002	
34.89077	2790.588		-41.37798	
34.94472	2788.583		-41.35523	
34.99866	2786.555		-41.33186	
35.05261	2784.494		-41.30796	
35.10656	2782.393		-41.28366	
35.16051	2780.249		-41.25913	
35.21445	2778.06		-41.23458	
35.2684	2775.825		-41.21023	
35.32235	2773.55		-41.18634	
35.3763	2771.242		-41.16315	
35.43025	2768.915		-41.14095	
35.4842	2766.583		-41.11998	
35.53814	2764.256		-41.10048	
35.59209	2761.936		-41.08268	
35.64604	2759.623		-41.06678	
35.69999	2757.318		-41.05297	
35.75393	2755.019		-41.04143	
35.80788	2752.722		-41.03227	
35.86183	2750.429		-41.02557	
35.91578	2748.137		-41.0213	
35.96973	2745.84		-41.01937	
36.02367	2743.539		-41.01957	
36.07762	2741.242		-41.02166	
36.13157	2738.952		-41.02533	
36.18552	2736.677		-41.03028	
36.23946	2734.419		-41.03616	
36.29341	2732.175		-41.04261	
36.34736	2729.95		-41.04921	
36.40131	2727.746		-41.05557	
36.45526	2725.562		-41.06128	
36.5092	2723.397		-41.06596	
36.56315	2721.248		-41.06926	
36.6171	2719.109		-41.07086	
36.67105	2716.972		-41.07054	
36.72499	2714.825		-41.06807	
36.77894	2712.657		-41.0633	
36.83289	2710.463		-41.0561	
36.88684	2708.244		-41.04639	
36.94079	2706.001		-41.03413	
36.99474	2703.737		-41.01928	
37.04868	2701.457		-41.00186	
37.10263	2699.178		-40.98193	
37.15658	2696.921		-40.95959	
37.21053	2694.698		-40.93498	
37.26447	2692.509		-40.90827	
37.31842	2690.352		-40.87964	
37.37237	2688.219		-40.84927	
37.42632	2686.094		-40.81731	
37.48027	2683.967		-40.78391	
37.53421	2681.831		-40.7492	
37.58816	2679.677		-40.71333	
37.64211	2677.499		-40.67641	
37.69606	2675.298		-40.63858	
37.75	2673.08		-40.59998	
37.80395	2670.851		-40.56074	
37.8579	2668.616		-40.52098	
37.91185	2666.373		-40.48085	
37.96579	2664.122		-40.44048	
38.01974	2661.868		-40.39997	
38.07369	2659.616		-40.35943	
38.12764	2657.374		-40.31897	
38.18159	2655.151		-40.27862	
38.23553	2652.947		-40.23843	
38.28948	2650.754		-40.19835	
38.34343	2648.564		-40.1583	
38.39738	2646.369		-40.11813	
38.45132	2644.165		-40.07767	
38.50527	2641.953		-40.03674	
38.55922	2639.744		-39.99514	
38.61317	2637.55		-39.95274	
38.66712	2635.374		-39.90937	
38.72107	2633.215		-39.86493	
38.77501	2631.072		-39.81932	
38.82896	2628.951		-39.7725	
38.88291	2626.857		-39.72446	
38.93686	2624.789		-39.67527	
38.9908	2622.738		-39.62503	
39.04475	2620.693		-39.57394	
39.0987	2618.642		-39.52222	
39.15265	2616.572		-39.47012	
39.2066	2614.473		-39.4179	
39.26054	2612.344		-39.36584	
39.31449	2610.191		-39.31418	
39.36844	2608.022		-39.26313	
39.42239	2605.843		-39.21292	
39.47633	2603.66		-39.16371	
39.53028	2601.48		-39.11564	
39.58423	2599.303		-39.06883	
39.63818	2597.129		-39.02341	
39.69213	2594.964		-38.9795	
39.74607	2592.816		-38.9372	
39.80002	2590.691		-38.89662	
39.85397	2588.584		-38.85785	
39.90792	2586.492		-38.82101	
39.96186	2584.412		-38.78622	
40.01581	2582.344		-38.7536	
40.06976	2580.288		-38.72326	
40.12371	2578.245		-38.69532	
40.17765	2576.224		-38.66988	
40.23161	2574.22		-38.64704	
40.28555	2572.227		-38.62685	
40.3395	2570.239		-38.60935	
40.39345	2568.248		-38.59449	
40.4474	2566.249		-38.58218	
40.50134	2564.236		-38.57227	
40.55529	2562.214		-38.56455	
40.60924	2560.185		-38.55881	
40.66319	2558.15		-38.55474	
40.71713	2556.105		-38.55201	
40.77108	2554.052		-38.55025	
40.82503	2551.994		-38.5491	
40.87898	2549.938		-38.54819	
40.93293	2547.882		-38.54721	
40.98687	2545.828		-38.54586	
41.04082	2543.777		-38.54392	
41.09477	2541.728		-38.54121	
41.14872	2539.676		-38.53761	
41.20266	2537.624		-38.53302	
41.25661	2535.578		-38.52731	
41.31056	2533.536		-38.52041	
41.36451	2531.493		-38.51223	
41.41846	2529.446		-38.5027	
41.4724	2527.397		-38.49175	
41.52635	2525.35		-38.47932	
41.5803	2523.301		-38.46537	
41.63425	2521.246		-38.44989	
41.68819	2519.181		-38.43287	
41.74214	2517.113		-38.41437	
41.79609	2515.039		-38.39445	
41.85004	2512.962		-38.3732	
41.90399	2510.886		-38.35073	
41.95794	2508.807		-38.32713	
42.01188	2506.715		-38.30247	
42.06583	2504.607		-38.27684	
42.11978	2502.484		-38.25034	
42.17373	2500.342		-38.2231	
42.22767	2498.174		-38.19528	
42.28162	2495.977		-38.1671	
42.33557	2493.754		-38.13877	
42.38952	2491.516		-38.11048	
42.44347	2489.271		-38.08242	
42.49741	2487.025		-38.05475	
42.55136	2484.792		-38.0276	
42.60531	2482.585		-38.00105	
42.65926	2480.41		-37.97515	
42.7132	2478.26		-37.94987	
42.76715	2476.132		-37.92514	
42.8211	2474.023		-37.90085	
42.87505	2471.929		-37.87689	
42.929	2469.853		-37.85314	
42.98294	2467.802		-37.8295	
43.03689	2465.782		-37.80589	
43.09084	2463.785		-37.78229	
43.14479	2461.803		-37.7587	
43.19873	2459.837		-37.73518	
43.25268	2457.886		-37.71184	
43.30663	2455.946		-37.6888	
43.36058	2454.011		-37.66624	
43.41452	2452.076		-37.64429	
43.46848	2450.146		-37.62313	
43.52242	2448.225		-37.60287	
43.57637	2446.315		-37.58368	
43.63032	2444.411		-37.5657	
43.68427	2442.506		-37.54904	
43.73821	2440.592		-37.53382	
43.79216	2438.667		-37.52015	
43.84611	2436.74		-37.50805	
43.90005	2434.816		-37.4975	
43.954	2432.895		-37.4884	
44.00795	2430.975		-37.4806	
44.0619	2429.063		-37.47389	
44.11585	2427.155		-37.46803	
44.1698	2425.247		-37.46271	
44.22374	2423.33		-37.45767	
44.27769	2421.397		-37.45264	
44.33164	2419.44		-37.44738	
44.38559	2417.454		-37.44167	
44.43953	2415.434		-37.43535	
44.49348	2413.379		-37.42825	
44.54743	2411.301		-37.42022	
44.60138	2409.216		-37.41113	
44.65533	2407.14		-37.40084	
44.70927	2405.081		-37.38919	
44.76322	2403.038		-37.37599	
44.81717	2401.005		-37.36106	
44.87112	2398.974		-37.34424	
44.92506	2396.939		-37.32536	
44.97901	2394.9		-37.30428	
45.03296	2392.854		-37.28088	
45.08691	2390.797		-37.25509	
45.14086	2388.729		-37.22685	
45.19481	2386.658		-37.19615	
45.24875	2384.591		-37.163	
45.3027	2382.536		-37.12746	
45.35665	2380.489		-37.08964	
45.41059	2378.44		-37.04969	
45.46454	2376.386		-37.0078	
45.51849	2374.326		-36.96429	
45.57244	2372.258		-36.91951	
45.62638	2370.178		-36.87386	
45.68034	2368.082		-36.82776	
45.73428	2365.964		-36.78165	
45.78823	2363.822		-36.73594	
45.84218	2361.658		-36.69098	
45.89613	2359.477		-36.64708	
45.95007	2357.291		-36.6045	
46.00402	2355.114		-36.56341	
46.05797	2352.953		-36.52394	
46.11192	2350.812		-36.48613	
46.16586	2348.691		-36.44992	
46.21981	2346.589		-36.41522	
46.27376	2344.504		-36.38187	
46.32771	2342.432		-36.34972	
46.38166	2340.375		-36.31861	
46.4356	2338.341		-36.28838	
46.48955	2336.339		-36.25889	
46.5435	2334.38		-36.23	
46.59745	2332.475		-36.20161	
46.65139	2330.63		-36.17363	
46.70534	2328.849		-36.14598	
46.75929	2327.129		-36.11863	
46.81324	2325.466		-36.09151	
46.86719	2323.848		-36.06461	
46.92113	2322.259		-36.03795	
46.97508	2320.683		-36.01157	
47.02903	2319.103		-35.98553	
47.08298	2317.504		-35.95995	
47.13692	2315.877		-35.93489	
47.19087	2314.214		-35.91042	
47.24482	2312.516		-35.88655	
47.29877	2310.788		-35.86331	
47.35272	2309.031		-35.8407	
47.40667	2307.244		-35.81878	
47.46061	2305.425		-35.79762	
47.51456	2303.575		-35.77737	
47.56851	2301.7		-35.75818	
47.62246	2299.803		-35.74022	
47.6764	2297.882		-35.72366	
47.73035	2295.933		-35.70867	
47.7843	2293.953		-35.69543	
47.83825	2291.934		-35.68402	
47.8922	2289.876		-35.67448	
47.94614	2287.789		-35.6668	
48.00009	2285.683		-35.66093	
48.05404	2283.563		-35.65677	
48.10799	2281.435		-35.65416	
48.16193	2279.308		-35.65289	
48.21588	2277.193		-35.65268	
48.26983	2275.101		-35.65319	
48.32378	2273.037		-35.654	
48.37773	2271.005		-35.65468	
48.43167	2269.001		-35.65476	
48.48562	2267.018		-35.65378	
48.53957	2265.047		-35.65127	
48.59352	2263.077		-35.64675	
48.64746	2261.107		-35.63978	
48.70141	2259.141		-35.62992	
48.75536	2257.179		-35.61679	
48.80931	2255.227		-35.60006	
48.86325	2253.285		-35.57946	
48.91721	2251.352		-35.55483	
48.97115	2249.416		-35.5261	
49.0251	2247.466		-35.4933	
49.07905	2245.501		-35.45657	
49.133	2243.521		-35.41608	
49.18694	2241.522		-35.37205	
49.24089	2239.507		-35.32468	
49.29484	2237.482		-35.27422	
49.34879	2235.461		-35.22093	
49.40273	2233.453		-35.1651	
49.45668	2231.468		-35.10704	
49.51063	2229.507		-35.04709	
49.56458	2227.568		-34.98556	
49.61853	2225.643		-34.92282	
49.67247	2223.727		-34.85923	
49.72642	2221.823		-34.79521	
49.78037	2219.935		-34.73117	
49.83432	2218.058		-34.66754	
49.88826	2216.192		-34.60473	
49.94221	2214.342		-34.54313	
49.99616	2212.509		-34.48308	
50.05011	2210.691		-34.42494	
50.10406	2208.891		-34.36905	
50.158	2207.104		-34.31572	
50.21195	2205.331		-34.26522	
50.2659	2203.57		-34.21774	
50.31985	2201.821		-34.1734	
50.37379	2200.09		-34.13228	
50.42774	2198.384		-34.09439	
50.48169	2196.708		-34.0597	
50.53564	2195.054		-34.02808	
50.58959	2193.416		-33.9994	
50.64354	2191.78		-33.97349	
50.69748	2190.129		-33.95016	
50.75143	2188.447		-33.92925	
50.80538	2186.732		-33.91059	
50.85933	2184.994		-33.89404	
50.91327	2183.243		-33.87947	
50.96722	2181.485		-33.86681	
51.02117	2179.727		-33.856	
51.07512	2177.971		-33.84704	
51.12907	2176.217		-33.83995	
51.18301	2174.458		-33.83475	
51.23696	2172.688		-33.83145	
51.29091	2170.904		-33.83002	
51.34486	2169.107		-33.83042	
51.3988	2167.303		-33.83261	
51.45275	2165.49		-33.8365	
51.5067	2163.667		-33.842	
51.56065	2161.825		-33.84898	
51.61459	2159.958		-33.85731	
51.66854	2158.065		-33.86683	
51.72249	2156.157		-33.87737	
51.77644	2154.245		-33.88876	
51.83039	2152.341		-33.90086	
51.88433	2150.445		-33.91351	
51.93828	2148.555		-33.92655	
51.99223	2146.661		-33.93982	
52.04618	2144.765		-33.95316	
52.10012	2142.869		-33.9664	
52.15407	2140.977		-33.97944	
52.20802	2139.091		-33.99217	
52.26197	2137.204		-34.00446	
52.31592	2135.305		-34.01621	
52.36987	2133.386		-34.02729	
52.42381	2131.449		-34.03757	
52.47776	2129.497		-34.04692	
52.53171	2127.545		-34.05519	
52.58566	2125.606		-34.06227	
52.6396	2123.682		-34.06806	
52.69355	2121.771		-34.07248	
52.7475	2119.871		-34.0755	
52.80145	2117.987		-34.07706	
52.8554	2116.129		-34.07715	
52.90934	2114.295		-34.07576	
52.96329	2112.485		-34.07287	
53.01724	2110.693		-34.06843	
53.07119	2108.914		-34.0624	
53.12513	2107.135		-34.0547	
53.17908	2105.34		-34.04529	
53.23303	2103.515		-34.03409	
53.28698	2101.655		-34.02103	
53.34093	2099.765		-34.00608	
53.39487	2097.861		-33.98923	
53.44882	2095.961		-33.97049	
53.50277	2094.077		-33.94989	
53.55672	2092.22		-33.92748	
53.61066	2090.39		-33.90331	
53.66461	2088.587		-33.87747	
53.71856	2086.81		-33.85004	
53.77251	2085.065		-33.82112	
53.82646	2083.359		-33.7908	
53.88041	2081.687		-33.75921	
53.93435	2080.032		-33.72645	
53.9883	2078.377		-33.6926	
54.04225	2076.701		-33.65773	
54.0962	2074.989		-33.62191	
54.15014	2073.237		-33.58521	
54.20409	2071.443		-33.54771	
54.25804	2069.617		-33.50951	
54.31199	2067.769		-33.47071	
54.36594	2065.91		-33.43141	
54.41988	2064.052		-33.39172	
54.47383	2062.208		-33.35173	
54.52778	2060.391		-33.31152	
54.58173	2058.607		-33.27122	
54.63567	2056.847		-33.23095	
54.68962	2055.095		-33.1908	
54.74357	2053.335		-33.15086	
54.79752	2051.557		-33.11118	
54.85146	2049.753		-33.07177	
54.90541	2047.914		-33.03266	
54.95936	2046.033		-32.99388	
55.01331	2044.12		-32.95542	
55.06726	2042.185		-32.91727	
55.1212	2040.241		-32.87936	
55.17515	2038.299		-32.84164	
55.2291	2036.369		-32.80405	
55.28305	2034.457		-32.76652	
55.33699	2032.572		-32.72906	
55.39094	2030.719		-32.69165	
55.44489	2028.905		-32.65433	
55.49884	2027.133		-32.61709	
55.55279	2025.403		-32.57996	
55.60674	2023.714		-32.54294	
55.66068	2022.051		-32.50603	
55.71463	2020.399		-32.46921	
55.76858	2018.742		-32.43242	
55.82253	2017.072		-32.39566	
55.87647	2015.387		-32.35892	
55.93042	2013.686		-32.32225	
55.98437	2011.971		-32.28569	
56.03832	2010.243		-32.24928	
56.09227	2008.508		-32.21309	
56.14621	2006.77		-32.17719	
