T[Â°C]	350nm [counts / mm]	S.D.	First derivative	S.D. of first derivative
20.00117	3054.833		-41.30617	
20.05512	3052.516		-41.36376	
20.10906	3050.205		-41.4209	
20.16301	3047.901		-41.47756	
20.21696	3045.601		-41.53371	
20.27091	3043.306		-41.58934	
20.32486	3041.017		-41.64442	
20.3788	3038.731		-41.69893	
20.43275	3036.45		-41.75283	
20.4867	3034.172		-41.80611	
20.54065	3031.897		-41.85874	
20.59459	3029.625		-41.9107	
20.64854	3027.356		-41.96197	
20.70249	3025.092		-42.01252	
20.75644	3022.833		-42.06233	
20.81039	3020.583		-42.11138	
20.86433	3018.345		-42.15966	
20.91828	3016.134		-42.20715	
20.97223	3013.969		-42.25383	
21.02618	3011.894		-42.29969	
21.08013	3009.81		-42.34473	
21.13407	3007.707		-42.38893	
21.18802	3005.575		-42.43229	
21.24197	3003.409		-42.47482	
21.29592	3001.201		-42.51652	
21.34986	2998.95		-42.5574	
21.40381	2996.659		-42.59747	
21.45776	2994.341		-42.63675	
21.51171	2992.006		-42.67527	
21.56566	2989.658		-42.71305	
21.6196	2987.301		-42.75012	
21.67355	2984.931		-42.78654	
21.7275	2982.546		-42.82235	
21.78145	2980.146		-42.8576	
21.8354	2977.73		-42.89235	
21.88934	2975.3		-42.92669	
21.94329	2972.851		-42.96069	
21.99724	2970.381		-42.99445	
22.05119	2967.895		-43.02808	
22.10513	2965.404		-43.06172	
22.15908	2962.914		-43.0955	
22.21303	2960.429		-43.12957	
22.26698	2957.955		-43.16406	
22.32093	2955.499		-43.19909	
22.37487	2953.063		-43.23468	
22.42882	2950.643		-43.27073	
22.48277	2948.236		-43.30685	
22.53672	2945.843		-43.34237	
22.59066	2943.459		-43.37635	
22.64461	2941.08		-43.3728	
22.69856	2938.699		-43.36732	
22.75251	2936.318		-43.35996	
22.80646	2933.935		-43.35072	
22.8604	2931.548		-43.33962	
22.91435	2929.156		-43.32665	
22.9683	2926.765		-43.31181	
23.02225	2924.377		-43.29507	
23.07619	2921.997		-43.27645	
23.13014	2919.629		-43.25596	
23.18409	2917.271		-43.23362	
23.23804	2914.92		-43.20949	
23.29199	2912.568		-43.18364	
23.34593	2910.206		-43.15615	
23.39988	2907.828		-43.12719	
23.45383	2905.439		-43.09692	
23.50778	2903.051		-43.06555	
23.56173	2900.677		-43.03328	
23.61567	2898.327		-43.00029	
23.66962	2896.003		-42.9668	
23.72357	2893.706		-42.93298	
23.77752	2891.436		-42.89897	
23.83146	2889.194		-42.86492	
23.88541	2886.98		-42.83097	
23.93936	2884.784		-42.79729	
23.99331	2882.596		-42.76403	
24.04726	2880.412		-42.73136	
24.1012	2878.229		-42.69941	
24.15515	2876.052		-42.66835	
24.2091	2873.878		-42.63828	
24.26305	2871.713		-42.60934	
24.317	2869.561		-42.58162	
24.37094	2867.42		-42.5552	
24.42489	2865.281		-42.53016	
24.47884	2863.134		-42.5065	
24.53279	2860.971		-42.48423	
24.58673	2858.78		-42.46329	
24.64068	2856.55		-42.44359	
24.69463	2854.277		-42.42497	
24.74858	2851.972		-42.40722	
24.80253	2849.644		-42.39007	
24.85647	2847.302		-42.37323	
24.91042	2844.949		-42.35636	
24.96437	2842.588		-42.33907	
25.01832	2840.217		-42.32101	
25.07227	2837.839		-42.30183	
25.12621	2835.459		-42.28125	
25.18016	2833.084		-42.25901	
25.23411	2830.72		-42.23493	
25.28806	2828.369		-42.20889	
25.342	2826.029		-42.18081	
25.39595	2823.696		-42.1507	
25.4499	2821.371		-42.11859	
25.50385	2819.054		-42.08455	
25.55779	2816.748		-42.0487	
25.61174	2814.45		-42.0112	
25.66569	2812.158		-41.97223	
25.71964	2809.875		-41.93199	
25.77359	2807.607		-41.89067	
25.82753	2805.361		-41.84848	
25.88148	2803.136		-41.80563	
25.93543	2800.925		-41.76234	
25.98938	2798.716		-41.71883	
26.04333	2796.493		-41.67532	
26.09727	2794.249		-41.63201	
26.15122	2791.977		-41.58911	
26.20517	2789.675		-41.54682	
26.25912	2787.34		-41.50533	
26.31306	2784.979		-41.46482	
26.36701	2782.595		-41.42545	
26.42096	2780.193		-41.38735	
26.47491	2777.779		-41.35062	
26.52886	2775.362		-41.31533	
26.5828	2772.952		-41.28156	
26.63675	2770.554		-41.24935	
26.6907	2768.171		-41.21877	
26.74465	2765.806		-41.18985	
26.7986	2763.465		-41.16259	
26.85254	2761.159		-41.13698	
26.90649	2758.899		-41.11293	
26.96044	2756.69		-41.09032	
27.01439	2754.535		-41.06901	
27.06833	2752.437		-41.04883	
27.12228	2750.392		-41.02961	
27.17623	2748.395		-41.01115	
27.23018	2746.438		-40.99331	
27.28413	2744.508		-40.97594	
27.33807	2742.591		-40.95891	
27.39202	2740.679		-40.9421	
27.44597	2738.767		-40.9254	
27.49992	2736.851		-40.90871	
27.55387	2734.921		-40.89196	
27.60781	2732.969		-40.87513	
27.66176	2730.987		-40.85824	
27.71571	2728.972		-40.8413	
27.76966	2726.924		-40.82434	
27.8236	2724.844		-40.80745	
27.87755	2722.732		-40.7907	
27.9315	2720.588		-40.7742	
27.98545	2718.415		-40.75805	
28.03939	2716.211		-40.74241	
28.09334	2713.977		-40.72739	
28.14729	2711.71		-40.71315	
28.20124	2709.408		-40.69983	
28.25519	2707.076		-40.68759	
28.30913	2704.725		-40.67655	
28.36308	2702.361		-40.66685	
28.41703	2699.991		-40.65857	
28.47098	2697.62		-40.65174	
28.52493	2695.254		-40.64633	
28.57887	2692.899		-40.64234	
28.63282	2690.56		-40.63974	
28.68677	2688.238		-40.63852	
28.74072	2685.925		-40.63868	
28.79466	2683.617		-40.64017	
28.84861	2681.32		-40.64297	
28.90256	2679.036		-40.64701	
28.95651	2676.769		-40.6522	
29.01046	2674.522		-40.6584	
29.0644	2672.296		-40.66546	
29.11835	2670.093		-40.67319	
29.1723	2667.91		-40.6814	
29.22625	2665.739		-40.68989	
29.2802	2663.569		-40.69843	
29.33414	2661.389		-40.70684	
29.38809	2659.197		-40.71491	
29.44204	2656.992		-40.72243	
29.49599	2654.777		-40.7292	
29.54993	2652.552		-40.73499	
29.60388	2650.32		-40.73958	
29.65783	2648.081		-40.7428	
29.71178	2645.841		-40.74446	
29.76573	2643.602		-40.74445	
29.81967	2641.368		-40.74266	
29.87362	2639.138		-40.73906	
29.92757	2636.918		-40.73367	
29.98152	2634.716		-40.72654	
30.03547	2632.54		-40.71777	
30.08941	2630.389		-40.70748	
30.14336	2628.258		-40.69579	
30.19731	2626.146		-40.68287	
30.25126	2624.049		-40.66893	
30.3052	2621.963		-40.65419	
30.35915	2619.882		-40.6389	
30.4131	2617.8		-40.62333	
30.46705	2615.714		-40.60772	
30.521	2613.627		-40.59231	
30.57494	2611.546		-40.57734	
30.62889	2609.479		-40.56302	
30.68284	2607.427		-40.54952	
30.73679	2605.386		-40.53697	
30.79074	2603.345		-40.52546	
30.84468	2601.298		-40.51506	
30.89863	2599.232		-40.50578	
30.95258	2597.143		-40.49765	
31.00653	2595.029		-40.49063	
31.06047	2592.89		-40.4847	
31.11442	2590.732		-40.47982	
31.16837	2588.552		-40.47594	
31.22232	2586.346		-40.47298	
31.27626	2584.108		-40.47087	
31.33021	2581.835		-40.46951	
31.38416	2579.526		-40.46883	
31.43811	2577.182		-40.46873	
31.49206	2574.809		-40.46906	
31.546	2572.417		-40.46965	
31.59995	2570.021		-40.47032	
31.6539	2567.633		-40.47083	
31.70785	2565.264		-40.47091	
31.7618	2562.922		-40.47025	
31.81574	2560.611		-40.46852	
31.86969	2558.333		-40.46537	
31.92364	2556.087		-40.46044	
31.97759	2553.872		-40.45341	
32.03154	2551.685		-40.44393	
32.08548	2549.523		-40.43172	
32.13943	2547.382		-40.41648	
32.19338	2545.257		-40.39799	
32.24733	2543.145		-40.37604	
32.30127	2541.039		-40.35051	
32.35522	2538.933		-40.32132	
32.40917	2536.823		-40.28849	
32.46312	2534.702		-40.25208	
32.51706	2532.568		-40.21226	
32.57101	2530.424		-40.16921	
32.62496	2528.275		-40.12318	
32.67891	2526.127		-40.07444	
32.73286	2523.983		-40.02327	
32.7868	2521.844		-39.96999	
32.84075	2519.698		-39.91492	
32.8947	2517.535		-39.85835	
32.94865	2515.345		-39.80056	
33.00259	2513.127		-39.74186	
33.05654	2510.881		-39.68257	
33.11049	2508.606		-39.623	
33.16444	2506.31		-39.5635	
33.21839	2504.009		-39.50436	
33.27234	2501.722		-39.44594	
33.32628	2499.467		-39.38859	
33.38023	2497.251		-39.33271	
33.43418	2495.078		-39.27867	
33.48812	2492.943		-39.2269	
33.54207	2490.843		-39.17778	
33.59602	2488.766		-39.13167	
33.64997	2486.705		-39.08889	
33.70392	2484.655		-39.04967	
33.75787	2482.612		-39.01416	
33.81181	2480.573		-38.98241	
33.86576	2478.535		-38.95438	
33.91971	2476.496		-38.92991	
33.97366	2474.458		-38.90877	
34.0276	2472.427		-38.89063	
34.08155	2470.41		-38.87515	
34.1355	2468.412		-38.86201	
34.18945	2466.435		-38.85085	
34.2434	2464.476		-38.84137	
34.29734	2462.532		-38.83325	
34.35129	2460.603		-38.82623	
34.40524	2458.681		-38.82006	
34.45919	2456.757		-38.81455	
34.51313	2454.817		-38.80954	
34.56708	2452.851		-38.8049	
34.62103	2450.85		-38.80053	
34.67498	2448.811		-38.79634	
34.72893	2446.738		-38.79231	
34.78288	2444.638		-38.7884	
34.83682	2442.525		-38.78461	
34.89077	2440.409		-38.7809	
34.94472	2438.304		-38.77725	
34.99866	2436.218		-38.77361	
35.05261	2434.149		-38.76997	
35.10656	2432.094		-38.76628	
35.16051	2430.046		-38.76251	
35.21445	2427.996		-38.75864	
35.2684	2425.931		-38.75465	
35.32235	2423.841		-38.75056	
35.3763	2421.723		-38.74641	
35.43025	2419.584		-38.74229	
35.4842	2417.435		-38.73833	
35.53814	2415.282		-38.73468	
35.59209	2413.126		-38.73152	
35.64604	2410.969		-38.72904	
35.69999	2408.813		-38.72742	
35.75393	2406.662		-38.72688	
35.80788	2404.513		-38.72759	
35.86183	2402.36		-38.72969	
35.91578	2400.195		-38.73324	
35.96973	2398.016		-38.7382	
36.02367	2395.822		-38.74446	
36.07762	2393.615		-38.75183	
36.13157	2391.395		-38.76011	
36.18552	2389.163		-38.76907	
36.23946	2386.918		-38.77845	
36.29341	2384.669		-38.78799	
36.34736	2382.423		-38.79739	
36.40131	2380.187		-38.80637	
36.45526	2377.976		-38.81472	
36.5092	2375.805		-38.82221	
36.56315	2373.687		-38.82872	
36.6171	2371.625		-38.83412	
36.67105	2369.599		-38.83834	
36.72499	2367.589		-38.8413	
36.77894	2365.578		-38.84292	
36.83289	2363.56		-38.84315	
36.88684	2361.531		-38.8419	
36.94079	2359.489		-38.8391	
36.99474	2357.436		-38.83468	
37.04868	2355.381		-38.82859	
37.10263	2353.337		-38.82075	
37.15658	2351.32		-38.81107	
37.21053	2349.338		-38.79945	
37.26447	2347.39		-38.7858	
37.31842	2345.47		-38.77003	
37.37237	2343.567		-38.7521	
37.42632	2341.673		-38.73193	
37.48027	2339.782		-38.70951	
37.53421	2337.88		-38.68483	
37.58816	2335.95		-38.6579	
37.64211	2333.983		-38.62879	
37.69606	2331.975		-38.59759	
37.75	2329.929		-38.56445	
37.80395	2327.847		-38.52958	
37.8579	2325.724		-38.49324	
37.91185	2323.56		-38.45573	
37.96579	2321.361		-38.41739	
38.01974	2319.14		-38.37855	
38.07369	2316.915		-38.33952	
38.12764	2314.703		-38.30059	
38.18159	2312.516		-38.26198	
38.23553	2310.36		-38.22386	
38.28948	2308.231		-38.18636	
38.34343	2306.114		-38.14952	
38.39738	2303.991		-38.11335	
38.45132	2301.851		-38.07781	
38.50527	2299.695		-38.04288	
38.55922	2297.535		-38.00849	
38.61317	2295.38		-37.97464	
38.66712	2293.228		-37.94128	
38.72107	2291.077		-37.90839	
38.77501	2288.93		-37.87596	
38.82896	2286.793		-37.844	
38.88291	2284.673		-37.81255	
38.93686	2282.574		-37.78168	
38.9908	2280.493		-37.7515	
39.04475	2278.426		-37.72209	
39.0987	2276.367		-37.69353	
39.15265	2274.316		-37.66586	
39.2066	2272.27		-37.63899	
39.26054	2270.231		-37.61282	
39.31449	2268.203		-37.58722	
39.36844	2266.19		-37.56202	
39.42239	2264.195		-37.53702	
39.47633	2262.214		-37.51204	
39.53028	2260.237		-37.48686	
39.58423	2258.249		-37.46127	
39.63818	2256.245		-37.43509	
39.69213	2254.237		-37.40817	
39.74607	2252.239		-37.38037	
39.80002	2250.263		-37.35163	
39.85397	2248.311		-37.32195	
39.90792	2246.374		-37.29138	
39.96186	2244.45		-37.2601	
40.01581	2242.537		-37.22832	
40.06976	2240.633		-37.19632	
40.12371	2238.737		-37.16439	
40.17765	2236.854		-37.13284	
40.23161	2234.985		-37.10197	
40.28555	2233.132		-37.07206	
40.3395	2231.289		-37.04336	
40.39345	2229.445		-37.01604	
40.4474	2227.591		-36.99023	
40.50134	2225.718		-36.96602	
40.55529	2223.825		-36.94343	
40.60924	2221.915		-36.92245	
40.66319	2219.986		-36.90305	
40.71713	2218.034		-36.88515	
40.77108	2216.062		-36.86868	
40.82503	2214.072		-36.85359	
40.87898	2212.068		-36.83989	
40.93293	2210.054		-36.82762	
40.98687	2208.033		-36.81686	
41.04082	2206.009		-36.80774	
41.09477	2203.977		-36.80034	
41.14872	2201.934		-36.79474	
41.20266	2199.875		-36.79092	
41.25661	2197.792		-36.78885	
41.31056	2195.685		-36.78843	
41.36451	2193.554		-36.78954	
41.41846	2191.406		-36.792	
41.4724	2189.255		-36.79559	
41.52635	2187.108		-36.80005	
41.5803	2184.971		-36.80505	
41.63425	2182.851		-36.81027	
41.68819	2180.75		-36.81535	
41.74214	2178.681		-36.81995	
41.79609	2176.649		-36.82377	
41.85004	2174.651		-36.82653	
41.90399	2172.686		-36.82798	
41.95794	2170.752		-36.82792	
42.01188	2168.842		-36.82615	
42.06583	2166.948		-36.82254	
42.11978	2165.061		-36.81698	
42.17373	2163.168		-36.80939	
42.22767	2161.261		-36.79978	
42.28162	2159.34		-36.78816	
42.33557	2157.403		-36.77456	
42.38952	2155.456		-36.75902	
42.44347	2153.5		-36.74154	
42.49741	2151.535		-36.72214	
42.55136	2149.563		-36.70084	
42.60531	2147.579		-36.67764	
42.65926	2145.582		-36.65256	
42.7132	2143.575		-36.62558	
42.76715	2141.563		-36.59673	
42.8211	2139.552		-36.56603	
42.87505	2137.543		-36.53354	
42.929	2135.536		-36.49934	
42.98294	2133.531		-36.4636	
43.03689	2131.526		-36.42651	
43.09084	2129.522		-36.38833	
43.14479	2127.523		-36.34936	
43.19873	2125.537		-36.30992	
43.25268	2123.568		-36.27034	
43.30663	2121.618		-36.23093	
43.36058	2119.683		-36.19202	
43.41452	2117.755		-36.15387	
43.46848	2115.824		-36.11673	
43.52242	2113.888		-36.0808	
43.57637	2111.947		-36.04622	
43.63032	2110.004		-36.01312	
43.68427	2108.068		-35.98156	
43.73821	2106.147		-35.95157	
43.79216	2104.245		-35.92316	
43.84611	2102.358		-35.8963	
43.90005	2100.483		-35.8709	
43.954	2098.613		-35.84683	
44.00795	2096.74		-35.82396	
44.0619	2094.856		-35.8021	
44.11585	2092.958		-35.78103	
44.1698	2091.044		-35.76055	
44.22374	2089.112		-35.74046	
44.27769	2087.161		-35.72062	
44.33164	2085.186		-35.70088	
44.38559	2083.182		-35.68112	
44.43953	2081.157		-35.66123	
44.49348	2079.126		-35.64111	
44.54743	2077.095		-35.62069	
44.60138	2075.073		-35.59991	
44.65533	2073.071		-35.57873	
44.70927	2071.102		-35.55708	
44.76322	2069.169		-35.53493	
44.81717	2067.271		-35.51225	
44.87112	2065.405		-35.48898	
44.92506	2063.565		-35.46511	
44.97901	2061.746		-35.4406	
45.03296	2059.942		-35.41545	
45.08691	2058.144		-35.38972	
45.14086	2056.347		-35.36348	
45.19481	2054.544		-35.33686	
45.24875	2052.734		-35.31003	
45.3027	2050.921		-35.28322	
45.35665	2049.107		-35.25669	
45.41059	2047.287		-35.23075	
45.46454	2045.456		-35.20573	
45.51849	2043.607		-35.18197	
45.57244	2041.731		-35.15981	
45.62638	2039.818		-35.13961	
45.68034	2037.867		-35.12166	
45.73428	2035.882		-35.10626	
45.78823	2033.879		-35.09359	
45.84218	2031.872		-35.08377	
45.89613	2029.877		-35.07683	
45.95007	2027.899		-35.07273	
46.00402	2025.936		-35.07135	
46.05797	2023.983		-35.07253	
46.11192	2022.034		-35.07602	
46.16586	2020.084		-35.08158	
46.21981	2018.128		-35.08892	
46.27376	2016.162		-35.09772	
46.32771	2014.187		-35.10767	
46.38166	2012.21		-35.11847	
46.4356	2010.241		-35.12981	
46.48955	2008.287		-35.14138	
46.5435	2006.353		-35.15289	
46.59745	2004.451		-35.16408	
46.65139	2002.594		-35.17469	
46.70534	2000.789		-35.1845	
46.75929	1999.037		-35.19328	
46.81324	1997.328		-35.2008	
46.86719	1995.648		-35.20683	
46.92113	1993.981		-35.21117	
46.97508	1992.311		-35.2136	
47.02903	1990.63		-35.21393	
47.08298	1988.922		-35.21198	
47.13692	1987.177		-35.20757	
47.19087	1985.382		-35.20053	
47.24482	1983.54		-35.19073	
47.29877	1981.653		-35.17807	
47.35272	1979.728		-35.16254	
47.40667	1977.777		-35.14419	
47.46061	1975.814		-35.12317	
47.51456	1973.856		-35.09969	
47.56851	1971.913		-35.07405	
47.62246	1969.983		-35.04655	
47.6764	1968.059		-35.01756	
47.73035	1966.132		-34.98742	
47.7843	1964.193		-34.95646	
47.83825	1962.228		-34.92497	
47.8922	1960.227		-34.89322	
47.94614	1958.184		-34.86138	
48.00009	1956.102		-34.82959	
48.05404	1953.993		-34.79794	
48.10799	1951.874		-34.76645	
48.16193	1949.765		-34.73511	
48.21588	1947.675		-34.70388	
48.26983	1945.617		-34.6727	
48.32378	1943.601		-34.64151	
48.37773	1941.631		-34.61021	
48.43167	1939.708		-34.5787	
48.48562	1937.827		-34.54686	
48.53957	1935.978		-34.51454	
48.59352	1934.152		-34.48162	
48.64746	1932.342		-34.44801	
48.70141	1930.545		-34.41358	
48.75536	1928.752		-34.37825	
48.80931	1926.96		-34.34197	
48.86325	1925.163		-34.3047	
48.91721	1923.356		-34.26646	
48.97115	1921.541		-34.22732	
49.0251	1919.722		-34.18737	
49.07905	1917.904		-34.14676	
49.133	1916.093		-34.10566	
49.18694	1914.294		-34.06425	
49.24089	1912.511		-34.02269	
49.29484	1910.747		-33.98117	
49.34879	1909.001		-33.93984	
49.40273	1907.262		-33.89888	
49.45668	1905.521		-33.85851	
49.51063	1903.767		-33.81892	
49.56458	1901.99		-33.78036	
49.61853	1900.185		-33.74307	
49.67247	1898.354		-33.70728	
49.72642	1896.513		-33.67323	
49.78037	1894.678		-33.64114	
49.83432	1892.863		-33.61124	
49.88826	1891.073		-33.58372	
49.94221	1889.306		-33.55875	
49.99616	1887.557		-33.53646	
50.05011	1885.817		-33.51695	
50.10406	1884.084		-33.50027	
50.158	1882.352		-33.48639	
50.21195	1880.622		-33.47523	
50.2659	1878.893		-33.46667	
50.31985	1877.163		-33.46051	
50.37379	1875.436		-33.4565	
50.42774	1873.708		-33.45437	
50.48169	1871.976		-33.45383	
50.53564	1870.236		-33.45456	
50.58959	1868.485		-33.45628	
50.64354	1866.725		-33.45869	
50.69748	1864.957		-33.46151	
50.75143	1863.182		-33.46446	
50.80538	1861.402		-33.4673	
50.85933	1859.617		-33.46981	
50.91327	1857.824		-33.47181	
50.96722	1856.026		-33.47313	
51.02117	1854.222		-33.47364	
51.07512	1852.407		-33.47324	
51.12907	1850.575		-33.47185	
51.18301	1848.719		-33.46939	
51.23696	1846.839		-33.46583	
51.29091	1844.941		-33.46113	
51.34486	1843.032		-33.45525	
51.3988	1841.122		-33.44815	
51.45275	1839.216		-33.4398	
51.5067	1837.323		-33.43016	
51.56065	1835.441		-33.41921	
51.61459	1833.567		-33.40694	
51.66854	1831.697		-33.39335	
51.72249	1829.829		-33.37847	
51.77644	1827.964		-33.36234	
51.83039	1826.104		-33.34498	
51.88433	1824.251		-33.32647	
51.93828	1822.402		-33.30688	
51.99223	1820.553		-33.28629	
52.04618	1818.703		-33.26479	
52.10012	1816.85		-33.2425	
52.15407	1814.993		-33.21951	
52.20802	1813.131		-33.19595	
52.26197	1811.265		-33.1719	
52.31592	1809.402		-33.14746	
52.36987	1807.548		-33.1227	
52.42381	1805.71		-33.09766	
52.47776	1803.893		-33.07238	
52.53171	1802.1		-33.04691	
52.58566	1800.331		-33.02128	
52.6396	1798.583		-32.99557	
52.69355	1796.851		-32.96984	
52.7475	1795.135		-32.94416	
52.80145	1793.434		-32.91861	
52.8554	1791.746		-32.89325	
52.90934	1790.064		-32.86813	
52.96329	1788.385		-32.84331	
53.01724	1786.699		-32.81882	
53.07119	1784.998		-32.79468	
53.12513	1783.277		-32.7709	
53.17908	1781.536		-32.74751	
53.23303	1779.78		-32.72452	
53.28698	1778.018		-32.70198	
53.34093	1776.257		-32.67992	
53.39487	1774.506		-32.65838	
53.44882	1772.771		-32.63739	
53.50277	1771.056		-32.61698	
53.55672	1769.361		-32.59716	
53.61066	1767.686		-32.57797	
53.66461	1766.026		-32.55941	
53.71856	1764.378		-32.5415	
53.77251	1762.734		-32.52425	
53.82646	1761.085		-32.50764	
53.88041	1759.424		-32.49165	
53.93435	1757.744		-32.47623	
53.9883	1756.043		-32.46133	
54.04225	1754.328		-32.4469	
54.0962	1752.598		-32.43288	
54.15014	1750.851		-32.41921	
54.20409	1749.086		-32.40587	
54.25804	1747.307		-32.39286	
54.31199	1745.518		-32.38016	
54.36594	1743.731		-32.36777	
54.41988	1741.952		-32.35566	
54.47383	1740.183		-32.34379	
54.52778	1738.424		-32.33208	
54.58173	1736.67		-32.32045	
54.63567	1734.912		-32.30883	
54.68962	1733.142		-32.29713	
54.74357	1731.351		-32.28524	
54.79752	1729.537		-32.27304	
54.85146	1727.702		-32.26045	
54.90541	1725.848		-32.24731	
54.95936	1723.981		-32.23352	
55.01331	1722.107		-32.21894	
55.06726	1720.231		-32.20344	
55.1212	1718.361		-32.18691	
55.17515	1716.503		-32.16927	
55.2291	1714.663		-32.15045	
55.28305	1712.845		-32.13042	
55.33699	1711.051		-32.10918	
55.39094	1709.285		-32.08674	
55.44489	1707.547		-32.06314	
55.49884	1705.834		-32.03842	
55.55279	1704.14		-32.01263	
55.60674	1702.46		-31.98585	
55.66068	1700.793		-31.95814	
55.71463	1699.135		-31.92962	
55.76858	1697.479		-31.90041	
55.82253	1695.814		-31.87064	
55.87647	1694.13		-31.84048	
55.93042	1692.425		-31.81009	
55.98437	1690.707		-31.77965	
56.03832	1688.982		-31.74938	
56.09227	1687.259		-31.71949	
56.14621	1685.542		-31.6902	
