T[Â°C]	350nm [counts / mm]	S.D.	First derivative	S.D. of first derivative
20.0008	3013.172		-41.81483	
20.05476	3010.908		-41.83296	
20.10871	3008.65		-41.8505	
20.16266	3006.399		-41.86741	
20.21661	3004.155		-41.88369	
20.27056	3001.916		-41.8993	
20.32452	2999.682		-41.91423	
20.37847	2997.451		-41.92847	
20.43242	2995.225		-41.942	
20.48637	2993.001		-41.9548	
20.54032	2990.779		-41.96685	
20.59427	2988.56		-41.97815	
20.64823	2986.342		-41.98868	
20.70218	2984.127		-41.99844	
20.75613	2981.916		-42.00741	
20.81008	2979.71		-42.0156	
20.86403	2977.516		-42.023	
20.91799	2975.347		-42.02961	
20.97194	2973.23		-42.03542	
21.02589	2971.196		-42.04046	
21.07984	2969.141		-42.04472	
21.13379	2967.053		-42.04821	
21.18774	2964.924		-42.05096	
21.2417	2962.753		-42.05298	
21.29565	2960.542		-42.05431	
21.3496	2958.293		-42.05496	
21.40355	2956.011		-42.05499	
21.4575	2953.696		-42.05442	
21.51146	2951.351		-42.05333	
21.56541	2948.975		-42.05174	
21.61936	2946.571		-42.04973	
21.67331	2944.153		-42.04735	
21.72726	2941.73		-42.04467	
21.78122	2939.303		-42.04176	
21.83517	2936.869		-42.03869	
21.88912	2934.427		-42.03555	
21.94307	2931.978		-42.03244	
21.99702	2929.523		-42.02943	
22.05097	2927.063		-42.02666	
22.10493	2924.599		-42.02421	
22.15888	2922.135		-42.0222	
22.21283	2919.678		-42.02072	
22.26678	2917.237		-42.01984	
22.32073	2914.823		-42.01955	
22.37469	2912.446		-42.01973	
22.42864	2910.112		-42.02009	
22.48259	2907.823		-42.02002	
22.53654	2905.574		-42.0186	
22.59049	2903.35		-42.01469	
22.64444	2901.129		-41.98673	
22.6984	2898.891		-41.95745	
22.75235	2896.625		-41.92671	
22.8063	2894.334		-41.8944	
22.86025	2892.032		-41.86038	
22.9142	2889.74		-41.82457	
22.96815	2887.467		-41.78693	
23.02211	2885.217		-41.74743	
23.07606	2882.985		-41.70611	
23.13001	2880.771		-41.66302	
23.18396	2878.577		-41.61828	
23.23792	2876.402		-41.57206	
23.29187	2874.244		-41.52463	
23.34582	2872.099		-41.4763	
23.39977	2869.964		-41.42744	
23.45372	2867.836		-41.37848	
23.50767	2865.704		-41.32987	
23.56162	2863.551		-41.28209	
23.61558	2861.372		-41.23556	
23.66953	2859.177		-41.19071	
23.72348	2856.979		-41.1479	
23.77743	2854.781		-41.10748	
23.83138	2852.584		-41.06974	
23.88534	2850.389		-41.03495	
23.93929	2848.209		-41.0033	
23.99324	2846.052		-40.97492	
24.04719	2843.921		-40.94989	
24.10114	2841.811		-40.92825	
24.1551	2839.717		-40.90996	
24.20905	2837.629		-40.89498	
24.263	2835.531		-40.88323	
24.31695	2833.408		-40.87457	
24.3709	2831.244		-40.86881	
24.42485	2829.035		-40.86578	
24.47881	2826.791		-40.86523	
24.53276	2824.523		-40.86687	
24.58671	2822.248		-40.87039	
24.64066	2819.976		-40.87537	
24.69461	2817.717		-40.88137	
24.74857	2815.477		-40.88789	
24.80252	2813.265		-40.8944	
24.85647	2811.09		-40.90037	
24.91042	2808.948		-40.90525	
24.96437	2806.826		-40.90852	
25.01832	2804.708		-40.90963	
25.07228	2802.583		-40.90812	
25.12623	2800.441		-40.90356	
25.18018	2798.278		-40.89563	
25.23413	2796.099		-40.88409	
25.28808	2793.907		-40.86889	
25.34204	2791.702		-40.8501	
25.39599	2789.49		-40.82793	
25.44994	2787.272		-40.80274	
25.50389	2785.043		-40.77497	
25.55784	2782.798		-40.74513	
25.6118	2780.545		-40.71378	
25.66575	2778.292		-40.68149	
25.7197	2776.045		-40.64885	
25.77365	2773.799		-40.61644	
25.8276	2771.546		-40.58481	
25.88155	2769.278		-40.55443	
25.9355	2766.993		-40.52572	
25.98946	2764.681		-40.499	
26.04341	2762.337		-40.47445	
26.09736	2759.964		-40.45219	
26.15131	2757.576		-40.43228	
26.20527	2755.189		-40.41473	
26.25922	2752.821		-40.39959	
26.31317	2750.481		-40.38684	
26.36712	2748.172		-40.37651	
26.42107	2745.89		-40.36858	
26.47502	2743.632		-40.36303	
26.52898	2741.397		-40.35981	
26.58293	2739.185		-40.35886	
26.63688	2736.989		-40.36004	
26.69083	2734.804		-40.36324	
26.74478	2732.625		-40.36832	
26.79873	2730.453		-40.37514	
26.85269	2728.292		-40.38348	
26.90664	2726.15		-40.3931	
26.96059	2724.037		-40.40365	
27.01454	2721.964		-40.41477	
27.06849	2719.938		-40.42601	
27.12245	2717.957		-40.4369	
27.1764	2716.02		-40.44699	
27.23035	2714.122		-40.45584	
27.2843	2712.254		-40.46305	
27.33825	2710.404		-40.46832	
27.3922	2708.558		-40.47144	
27.44616	2706.702		-40.47226	
27.50011	2704.827		-40.47076	
27.55406	2702.927		-40.467	
27.60801	2700.988		-40.46112	
27.66196	2699.003		-40.45333	
27.71592	2696.969		-40.44391	
27.76987	2694.886		-40.43318	
27.82382	2692.757		-40.42145	
27.87777	2690.592		-40.40904	
27.93172	2688.397		-40.39625	
27.98568	2686.17		-40.3833	
28.03963	2683.902		-40.37037	
28.09358	2681.59		-40.35754	
28.14753	2679.238		-40.34485	
28.20148	2676.854		-40.33226	
28.25543	2674.45		-40.31971	
28.30939	2672.04		-40.30709	
28.36334	2669.624		-40.29427	
28.41729	2667.204		-40.2811	
28.47124	2664.777		-40.26745	
28.52519	2662.348		-40.25321	
28.57915	2659.929		-40.23832	
28.6331	2657.538		-40.22277	
28.68705	2655.186		-40.20665	
28.741	2652.878		-40.19011	
28.79495	2650.613		-40.17336	
28.8489	2648.377		-40.15655	
28.90286	2646.156		-40.13985	
28.95681	2643.939		-40.12331	
29.01076	2641.72		-40.10699	
29.06471	2639.503		-40.09089	
29.11866	2637.295		-40.07502	
29.17262	2635.101		-40.05935	
29.22657	2632.92		-40.04385	
29.28052	2630.745		-40.02842	
29.33447	2628.567		-40.01297	
29.38842	2626.38		-39.9974	
29.44238	2624.19		-39.98157	
29.49633	2622.007		-39.9654	
29.55028	2619.839		-39.94886	
29.60423	2617.686		-39.93195	
29.65818	2615.544		-39.91476	
29.71213	2613.409		-39.89738	
29.76608	2611.272		-39.88	
29.82004	2609.133		-39.86282	
29.87399	2606.997		-39.84607	
29.92794	2604.87		-39.83005	
29.98189	2602.746		-39.81505	
30.03584	2600.625		-39.80137	
30.0898	2598.509		-39.78929	
30.14375	2596.406		-39.77902	
30.1977	2594.33		-39.77072	
30.25165	2592.298		-39.76447	
30.3056	2590.322		-39.76027	
30.35956	2588.406		-39.75808	
30.41351	2586.543		-39.75778	
30.46746	2584.712		-39.75922	
30.52141	2582.889		-39.76223	
30.57536	2581.06		-39.76664	
30.62931	2579.213		-39.7723	
30.68327	2577.344		-39.77915	
30.73722	2575.454		-39.78715	
30.79117	2573.538		-39.79632	
30.84512	2571.59		-39.8067	
30.89907	2569.603		-39.81831	
30.95303	2567.572		-39.83117	
31.00698	2565.492		-39.84529	
31.06093	2563.367		-39.86071	
31.11488	2561.203		-39.87741	
31.16883	2559.009		-39.89538	
31.22278	2556.789		-39.91453	
31.27674	2554.539		-39.93471	
31.33069	2552.253		-39.95572	
31.38464	2549.927		-39.97724	
31.43859	2547.564		-39.99896	
31.49254	2545.179		-40.0205	
31.5465	2542.785		-40.0415	
31.60045	2540.391		-40.06158	
31.6544	2537.997		-40.0804	
31.70835	2535.601		-40.09763	
31.7623	2533.205		-40.11294	
31.81626	2530.815		-40.12604	
31.87021	2528.441		-40.13669	
31.92416	2526.094		-40.14473	
31.97811	2523.781		-40.15005	
32.03206	2521.502		-40.15264	
32.08601	2519.254		-40.15248	
32.13997	2517.026		-40.14959	
32.19392	2514.809		-40.14393	
32.24787	2512.6		-40.1355	
32.30182	2510.402		-40.12424	
32.35577	2508.216		-40.11012	
32.40973	2506.038		-40.09304	
32.46368	2503.865		-40.07295	
32.51763	2501.696		-40.04974	
32.57158	2499.528		-40.02331	
32.62553	2497.361		-39.9936	
32.67949	2495.198		-39.96056	
32.73344	2493.041		-39.92414	
32.78739	2490.89		-39.88436	
32.84134	2488.74		-39.84127	
32.89529	2486.586		-39.79494	
32.94924	2484.427		-39.7455	
33.0032	2482.256		-39.69314	
33.05715	2480.073		-39.6381	
33.1111	2477.884		-39.58071	
33.16505	2475.696		-39.52135	
33.219	2473.513		-39.46045	
33.27295	2471.341		-39.39846	
33.3269	2469.175		-39.33587	
33.38086	2467.014		-39.27312	
33.43481	2464.866		-39.21068	
33.48876	2462.747		-39.14894	
33.54271	2460.67		-39.08829	
33.59666	2458.646		-39.02908	
33.65062	2456.68		-38.97164	
33.70457	2454.772		-38.91623	
33.75852	2452.909		-38.86305	
33.81247	2451.071		-38.8123	
33.86642	2449.237		-38.7641	
33.92038	2447.388		-38.71858	
33.97433	2445.511		-38.67585	
34.02828	2443.602		-38.63602	
34.08223	2441.661		-38.59921	
34.13618	2439.687		-38.56546	
34.19014	2437.677		-38.53486	
34.24409	2435.634		-38.50745	
34.29804	2433.569		-38.48326	
34.35199	2431.49		-38.46231	
34.40594	2429.403		-38.44461	
34.4599	2427.316		-38.43012	
34.51385	2425.23		-38.41877	
34.5678	2423.14		-38.41045	
34.62175	2421.037		-38.40498	
34.6757	2418.915		-38.40215	
34.72965	2416.771		-38.40168	
34.7836	2414.604		-38.40326	
34.83756	2412.421		-38.40648	
34.89151	2410.227		-38.41091	
34.94546	2408.029		-38.41612	
34.99941	2405.831		-38.42163	
35.05336	2403.638		-38.42704	
35.10732	2401.453		-38.43196	
35.16127	2399.283		-38.43606	
35.21522	2397.143		-38.43909	
35.26917	2395.047		-38.44087	
35.32312	2393.001		-38.44125	
35.37708	2391.005		-38.44018	
35.43103	2389.053		-38.43761	
35.48498	2387.13		-38.43357	
35.53893	2385.219		-38.42812	
35.59288	2383.303		-38.42135	
35.64684	2381.369		-38.41337	
35.70079	2379.407		-38.40431	
35.75474	2377.413		-38.39429	
35.80869	2375.382		-38.38346	
35.86264	2373.312		-38.37194	
35.9166	2371.204		-38.35986	
35.97055	2369.061		-38.34736	
36.0245	2366.895		-38.33461	
36.07845	2364.714		-38.32175	
36.1324	2362.527		-38.30897	
36.18635	2360.333		-38.29642	
36.2403	2358.136		-38.28425	
36.29426	2355.936		-38.27262	
36.34821	2353.733		-38.2617	
36.40216	2351.528		-38.25164	
36.45611	2349.322		-38.24263	
36.51006	2347.123		-38.23482	
36.56401	2344.937		-38.22834	
36.61797	2342.768		-38.22329	
36.67192	2340.619		-38.21972	
36.72587	2338.488		-38.21761	
36.77982	2336.374		-38.21687	
36.83377	2334.281		-38.21734	
36.88773	2332.217		-38.21883	
36.94168	2330.185		-38.22107	
36.99563	2328.19		-38.22377	
37.04958	2326.241		-38.22659	
37.10353	2324.336		-38.22916	
37.15749	2322.464		-38.23109	
37.21144	2320.611		-38.232	
37.26539	2318.765		-38.23152	
37.31934	2316.919		-38.22932	
37.37329	2315.07		-38.22511	
37.42725	2313.216		-38.21869	
37.4812	2311.348		-38.20991	
37.53515	2309.46		-38.19869	
37.5891	2307.547		-38.18501	
37.64305	2305.608		-38.1689	
37.697	2303.644		-38.15046	
37.75096	2301.65		-38.12981	
37.80491	2299.625		-38.10712	
37.85886	2297.568		-38.08259	
37.91281	2295.48		-38.05643	
37.96676	2293.366		-38.0289	
38.02071	2291.227		-38.00024	
38.07467	2289.067		-37.97071	
38.12862	2286.891		-37.94054	
38.18257	2284.707		-37.90996	
38.23652	2282.524		-37.87917	
38.29047	2280.347		-37.84831	
38.34443	2278.177		-37.81754	
38.39838	2276.009		-37.78701	
38.45233	2273.843		-37.75685	
38.50628	2271.683		-37.72719	
38.56023	2269.531		-37.69816	
38.61419	2267.388		-37.66985	
38.66814	2265.251		-37.64232	
38.72209	2263.123		-37.6156	
38.77604	2261.007		-37.58967	
38.82999	2258.905		-37.56452	
38.88395	2256.813		-37.54011	
38.9379	2254.721		-37.51638	
38.99185	2252.625		-37.49327	
39.0458	2250.531		-37.47066	
39.09975	2248.448		-37.44843	
39.1537	2246.378		-37.42639	
39.20766	2244.32		-37.40436	
39.26161	2242.276		-37.3821	
39.31556	2240.252		-37.35935	
39.36951	2238.25		-37.33587	
39.42346	2236.272		-37.31141	
39.47741	2234.312		-37.28577	
39.53136	2232.362		-37.25879	
39.58532	2230.421		-37.23035	
39.63927	2228.49		-37.20044	
39.69322	2226.563		-37.16909	
39.74717	2224.633		-37.13645	
39.80112	2222.697		-37.10271	
39.85508	2220.756		-37.06819	
39.90903	2218.812		-37.03322	
39.96298	2216.863		-36.99818	
40.01693	2214.906		-36.96346	
40.07088	2212.945		-36.92941	
40.12484	2210.984		-36.89637	
40.17879	2209.029		-36.86465	
40.23274	2207.087		-36.8345	
40.28669	2205.165		-36.80614	
40.34064	2203.268		-36.77975	
40.3946	2201.394		-36.75549	
40.44855	2199.539		-36.73344	
40.5025	2197.694		-36.71371	
40.55645	2195.849		-36.69632	
40.6104	2193.991		-36.68131	
40.66435	2192.11		-36.66867	
40.71831	2190.201		-36.65836	
40.77226	2188.27		-36.65033	
40.82621	2186.32		-36.6445	
40.88016	2184.352		-36.64075	
40.93411	2182.367		-36.63893	
40.98806	2180.368		-36.63888	
41.04202	2178.356		-36.64045	
41.09597	2176.336		-36.64347	
41.14992	2174.313		-36.64779	
41.20387	2172.292		-36.6532	
41.25782	2170.281		-36.65953	
41.31178	2168.283		-36.66655	
41.36573	2166.299		-36.67403	
41.41968	2164.321		-36.68169	
41.47363	2162.337		-36.68919	
41.52758	2160.336		-36.69621	
41.58154	2158.312		-36.70244	
41.63549	2156.264		-36.70757	
41.68944	2154.19		-36.71137	
41.74339	2152.093		-36.71365	
41.79734	2149.989		-36.71432	
41.8513	2147.897		-36.71334	
41.90525	2145.835		-36.71074	
41.9592	2143.813		-36.7066	
42.01315	2141.838		-36.70104	
42.0671	2139.905		-36.69423	
42.12105	2138.003		-36.68635	
42.17501	2136.112		-36.6776	
42.22896	2134.213		-36.66816	
42.28291	2132.289		-36.65818	
42.33686	2130.335		-36.64779	
42.39081	2128.349		-36.6371	
42.44476	2126.328		-36.62617	
42.49872	2124.276		-36.61502	
42.55267	2122.202		-36.60364	
42.60662	2120.115		-36.59196	
42.66057	2118.021		-36.57992	
42.71452	2115.935		-36.56747	
42.76847	2113.865		-36.55454	
42.82243	2111.818		-36.5411	
42.87638	2109.798		-36.52708	
42.93033	2107.802		-36.51245	
42.98428	2105.825		-36.49713	
43.03823	2103.854		-36.48108	
43.09219	2101.881		-36.46423	
43.14614	2099.896		-36.44655	
43.20009	2097.893		-36.42799	
43.25404	2095.871		-36.40853	
43.30799	2093.841		-36.38813	
43.36195	2091.819		-36.36678	
43.4159	2089.825		-36.34443	
43.46985	2087.881		-36.32104	
43.5238	2085.999		-36.29656	
43.57775	2084.183		-36.27095	
43.63171	2082.426		-36.2442	
43.68566	2080.709		-36.2163	
43.73961	2079.006		-36.18729	
43.79356	2077.295		-36.15725	
43.84751	2075.551		-36.12624	
43.90146	2073.76		-36.09441	
43.95541	2071.914		-36.06188	
44.00937	2070.014		-36.02882	
44.06332	2068.075		-35.99545	
44.11727	2066.113		-35.96202	
44.17122	2064.143		-35.92878	
44.22517	2062.174		-35.89601	
44.27913	2060.206		-35.86401	
44.33308	2058.235		-35.83306	
44.38703	2056.259		-35.80347	
44.44098	2054.272		-35.77552	
44.49493	2052.274		-35.74942	
44.54889	2050.262		-35.72533	
44.60284	2048.23		-35.70335	
44.65679	2046.175		-35.68348	
44.71074	2044.099		-35.6657	
44.76469	2042.01		-35.64989	
44.81865	2039.92		-35.63594	
44.8726	2037.834		-35.6237	
44.92655	2035.76		-35.61304	
44.9805	2033.708		-35.60378	
45.03445	2031.687		-35.59574	
45.08841	2029.713		-35.58876	
45.14236	2027.8		-35.58265	
45.19631	2025.95		-35.57724	
45.25026	2024.149		-35.57234	
45.30421	2022.377		-35.56776	
45.35816	2020.611		-35.5633	
45.41211	2018.835		-35.5588	
45.46607	2017.033		-35.55408	
45.52002	2015.2		-35.54902	
45.57397	2013.337		-35.54347	
45.62792	2011.453		-35.53736	
45.68187	2009.557		-35.53064	
45.73582	2007.66		-35.52325	
45.78978	2005.772		-35.51523	
45.84373	2003.9		-35.50662	
45.89768	2002.043		-35.49751	
45.95163	2000.197		-35.48802	
46.00558	1998.354		-35.47829	
46.05954	1996.506		-35.46844	
46.11349	1994.65		-35.45861	
46.16744	1992.779		-35.44888	
46.22139	1990.89		-35.4394	
46.27534	1988.979		-35.43028	
46.3293	1987.046		-35.42171	
46.38325	1985.091		-35.41385	
46.4372	1983.118		-35.40691	
46.49115	1981.133		-35.40109	
46.5451	1979.14		-35.39662	
46.59906	1977.144		-35.3937	
46.65301	1975.152		-35.3925	
46.70696	1973.174		-35.39315	
46.76091	1971.222		-35.39566	
46.81486	1969.305		-35.39999	
46.86881	1967.423		-35.40604	
46.92277	1965.572		-35.41364	
46.97672	1963.738		-35.42261	
47.03067	1961.903		-35.4327	
47.08462	1960.055		-35.44364	
47.13857	1958.188		-35.45513	
47.19252	1956.299		-35.46684	
47.24648	1954.391		-35.47846	
47.30043	1952.47		-35.48968	
47.35438	1950.546		-35.50023	
47.40833	1948.625		-35.50987	
47.46228	1946.708		-35.5184	
47.51624	1944.796		-35.52567	
47.57019	1942.891		-35.53156	
47.62414	1940.993		-35.53602	
47.67809	1939.099		-35.53902	
47.73204	1937.208		-35.54053	
47.786	1935.32		-35.54056	
47.83995	1933.433		-35.53914	
47.8939	1931.542		-35.53632	
47.94785	1929.64		-35.53219	
48.0018	1927.721		-35.52687	
48.05576	1925.785		-35.52049	
48.10971	1923.831		-35.51321	
48.16366	1921.859		-35.50514	
48.21761	1919.872		-35.49639	
48.27156	1917.877		-35.48706	
48.32551	1915.881		-35.47725	
48.37947	1913.887		-35.46707	
48.43342	1911.9		-35.4566	
48.48737	1909.922		-35.44592	
48.54132	1907.953		-35.43512	
48.59527	1905.995		-35.42427	
48.64922	1904.052		-35.41345	
48.70317	1902.125		-35.40271	
48.75713	1900.214		-35.39209	
48.81108	1898.308		-35.38158	
48.86503	1896.399		-35.37115	
48.91898	1894.483		-35.36073	
48.97293	1892.561		-35.35022	
49.02689	1890.637		-35.3395	
49.08084	1888.71		-35.32843	
49.13479	1886.78		-35.31683	
49.18874	1884.848		-35.30455	
49.24269	1882.915		-35.29144	
49.29665	1880.991		-35.27733	
49.3506	1879.083		-35.26213	
49.40455	1877.199		-35.24576	
49.4585	1875.336		-35.22818	
49.51245	1873.494		-35.20943	
49.56641	1871.666		-35.18959	
49.62036	1869.845		-35.16882	
49.67431	1868.024		-35.14727	
49.72826	1866.197		-35.12513	
49.78221	1864.366		-35.10257	
49.83617	1862.528		-35.07978	
49.89012	1860.682		-35.05695	
49.94407	1858.821		-35.03427	
49.99802	1856.94		-35.01192	
50.05197	1855.042		-34.99011	
50.10592	1853.127		-34.96905	
50.15987	1851.204		-34.94896	
50.21383	1849.284		-34.93003	
50.26778	1847.377		-34.91247	
50.32173	1845.49		-34.89646	
50.37568	1843.626		-34.88215	
50.42963	1841.782		-34.86965	
50.48359	1839.95		-34.85904	
50.53754	1838.113		-34.85033	
50.59149	1836.256		-34.84352	
50.64544	1834.371		-34.83857	
50.69939	1832.457		-34.83538	
50.75335	1830.522		-34.83386	
50.8073	1828.573		-34.83387	
50.86125	1826.614		-34.83524	
50.9152	1824.655		-34.83779	
50.96915	1822.703		-34.84126	
51.02311	1820.77		-34.84542	
51.07706	1818.864		-34.85002	
51.13101	1816.988		-34.85479	
51.18496	1815.14		-34.85948	
51.23891	1813.313		-34.86383	
51.29287	1811.503		-34.86754	
51.34682	1809.699		-34.87035	
51.40077	1807.896		-34.87196	
51.45472	1806.09		-34.8721	
51.50867	1804.28		-34.87054	
51.56262	1802.464		-34.86704	
51.61657	1800.639		-34.86143	
51.67053	1798.802		-34.85356	
51.72448	1796.956		-34.84332	
51.77843	1795.105		-34.83067	
51.83238	1793.255		-34.8156	
51.88633	1791.412		-34.79818	
51.94028	1789.574		-34.7785	
51.99424	1787.74		-34.75669	
52.04819	1785.899		-34.73291	
52.10214	1784.039		-34.70736	
52.15609	1782.15		-34.68024	
52.21004	1780.23		-34.65181	
52.264	1778.283		-34.62232	
52.31795	1776.317		-34.59205	
52.3719	1774.342		-34.56124	
52.42585	1772.364		-34.53015	
52.4798	1770.388		-34.49902	
52.53376	1768.419		-34.46808	
52.58771	1766.458		-34.43756	
52.64166	1764.503		-34.40768	
52.69561	1762.554		-34.37864	
52.74957	1760.611		-34.35062	
52.80352	1758.677		-34.32376	
52.85747	1756.751		-34.29818	
52.91142	1754.832		-34.27393	
52.96537	1752.917		-34.25104	
53.01932	1751.006		-34.22951	
53.07327	1749.102		-34.20932	
53.12723	1747.209		-34.19044	
53.18118	1745.331		-34.17285	
53.23513	1743.471		-34.15651	
53.28908	1741.629		-34.1414	
53.34303	1739.804		-34.12743	
53.39698	1737.996		-34.11452	
53.45094	1736.205		-34.10257	
53.50489	1734.431		-34.09143	
53.55884	1732.669		-34.08097	
53.61279	1730.915		-34.07109	
53.66674	1729.162		-34.06165	
53.7207	1727.406		-34.05255	
53.77465	1725.648		-34.04368	
53.8286	1723.891		-34.03499	
53.88255	1722.136		-34.02642	
53.9365	1720.388		-34.01794	
53.99046	1718.65		-34.00953	
54.04441	1716.924		-34.00117	
54.09836	1715.207		-33.99288	
54.15231	1713.491		-33.98466	
54.20626	1711.766		-33.97652	
54.26022	1710.03		-33.96846	
54.31417	1708.283		-33.96051	
54.36812	1706.527		-33.95266	
54.42207	1704.761		-33.94492	
54.47602	1702.987		-33.93727	
54.52997	1701.205		-33.92967	
54.58393	1699.417		-33.92211	
54.63788	1697.621		-33.91455	
54.69183	1695.818		-33.90701	
54.74578	1694.004		-33.89947	
54.79973	1692.177		-33.89194	
54.85368	1690.334		-33.8844	
54.90763	1688.478		-33.8768	
54.96159	1686.609		-33.86909	
55.01554	1684.727		-33.86117	
55.06949	1682.829		-33.85295	
55.12344	1680.919		-33.84437	
55.17739	1678.998		-33.83537	
55.23135	1677.071		-33.82592	
55.2853	1675.142		-33.81602	
55.33925	1673.218		-33.8057	
55.3932	1671.305		-33.79501	
55.44715	1669.407		-33.78401	
55.50111	1667.526		-33.77277	
55.55506	1665.661		-33.7614	
55.60901	1663.806		-33.74998	
55.66296	1661.951		-33.73862	
55.71692	1660.088		-33.7274	
55.77087	1658.214		-33.71641	
55.82482	1656.326		-33.70577	
55.87877	1654.424		-33.69558	
55.93272	1652.51		-33.68593	
55.98667	1650.592		-33.6769	
56.04063	1648.68		-33.66856	
56.09458	1646.783		-33.66092	
56.14853	1644.903		-33.65397	
56.20248	1643.042		-33.64771	
