T[Â°C]	350nm [counts / mm]	S.D.	First derivative	S.D. of first derivative
19.99934	6917.152		-97.79996	
20.05333	6912.119		-97.84424	
20.10732	6907.088		-97.8876	
20.1613	6902.059		-97.92998	
20.2153	6897.03		-97.97137	
20.26929	6892.001		-98.01172	
20.32327	6886.971		-98.05102	
20.37726	6881.937		-98.08922	
20.43125	6876.898		-98.12631	
20.48524	6871.851		-98.16226	
20.53923	6866.794		-98.19705	
20.59322	6861.724		-98.23066	
20.64721	6856.641		-98.26307	
20.7012	6851.545		-98.29427	
20.75519	6846.44		-98.32424	
20.80918	6841.332		-98.35299	
20.86317	6836.23		-98.38049	
20.91716	6831.153		-98.40677	
20.97115	6826.12		-98.43181	
21.02514	6820.949		-98.45563	
21.07913	6815.763		-98.47824	
21.13312	6810.564		-98.49966	
21.18711	6805.341		-98.51991	
21.2411	6800.081		-98.53902	
21.29509	6794.765		-98.55702	
21.34908	6789.38		-98.57396	
21.40307	6783.915		-98.58987	
21.45706	6778.364		-98.60481	
21.51105	6772.734		-98.61883	
21.56504	6767.053		-98.63198	
21.61903	6761.355		-98.64433	
21.67302	6755.662		-98.65594	
21.72701	6749.984		-98.66686	
21.781	6744.33		-98.67718	
21.83499	6738.699		-98.68694	
21.88898	6733.095		-98.6962	
21.94296	6727.521		-98.705	
21.99695	6721.99		-98.71341	
22.05094	6716.509		-98.72145	
22.10493	6711.083		-98.72916	
22.15892	6705.72		-98.73657	
22.21291	6700.434		-98.74366	
22.2669	6695.226		-98.75035	
22.32089	6690.086		-98.75645	
22.37488	6684.993		-98.76156	
22.42887	6679.921		-98.7649	
22.48286	6674.844		-98.76518	
22.53685	6669.733		-98.76051	
22.59084	6664.565		-98.74861	
22.64483	6659.331		-98.66257	
22.69882	6654.025		-98.57249	
22.75281	6648.65		-98.4793	
22.8068	6643.213		-98.38397	
22.86079	6637.727		-98.28745	
22.91478	6632.204		-98.1907	
22.96877	6626.657		-98.09465	
23.02276	6621.104		-98.00021	
23.07675	6615.56		-97.90827	
23.13074	6610.031		-97.81964	
23.18473	6604.516		-97.7351	
23.23872	6599.016		-97.6553	
23.29271	6593.531		-97.58083	
23.3467	6588.054		-97.51213	
23.40069	6582.574		-97.44956	
23.45468	6577.076		-97.39336	
23.50867	6571.556		-97.34369	
23.56265	6566.024		-97.30056	
23.61665	6560.496		-97.26389	
23.67064	6555		-97.23345	
23.72462	6549.573		-97.20892	
23.77861	6544.248		-97.1898	
23.8326	6539.053		-97.17552	
23.88659	6533.996		-97.16541	
23.94058	6529.067		-97.15868	
23.99457	6524.246		-97.15454	
24.04856	6519.498		-97.15212	
24.10255	6514.797		-97.15057	
24.15654	6510.123		-97.14903	
24.21053	6505.455		-97.14664	
24.26452	6500.779		-97.14262	
24.31851	6496.084		-97.13633	
24.3725	6491.359		-97.12725	
24.42649	6486.595		-97.11507	
24.48048	6481.785		-97.09968	
24.53447	6476.927		-97.08111	
24.58846	6472.022		-97.05961	
24.64245	6467.075		-97.03557	
24.69644	6462.088		-97.00951	
24.75043	6457.059		-96.98199	
24.80442	6451.983		-96.95364	
24.85841	6446.853		-96.92499	
24.9124	6441.656		-96.89653	
24.96639	6436.382		-96.86864	
25.02038	6431.024		-96.84168	
25.07437	6425.583		-96.81588	
25.12836	6420.063		-96.79144	
25.18235	6414.483		-96.76848	
25.23634	6408.865		-96.74708	
25.29033	6403.229		-96.72718	
25.34431	6397.59		-96.70867	
25.3983	6391.958		-96.69135	
25.45229	6386.335		-96.67496	
25.50628	6380.723		-96.65916	
25.56027	6375.113		-96.6436	
25.61426	6369.498		-96.62788	
25.66825	6363.873		-96.61155	
25.72224	6358.236		-96.59409	
25.77623	6352.603		-96.57487	
25.83022	6346.999		-96.55322	
25.88421	6341.457		-96.5283	
25.9382	6336.004		-96.49925	
25.99219	6330.646		-96.46519	
26.04618	6325.387		-96.42527	
26.10017	6320.222		-96.37872	
26.15416	6315.14		-96.32483	
26.20815	6310.121		-96.26299	
26.26214	6305.15		-96.19267	
26.31613	6300.209		-96.11345	
26.37012	6295.278		-96.02504	
26.42411	6290.337		-95.92731	
26.4781	6285.366		-95.82031	
26.53209	6280.347		-95.70432	
26.58608	6275.265		-95.5798	
26.64007	6270.115		-95.44752	
26.69406	6264.902		-95.30843	
26.74805	6259.65		-95.16361	
26.80204	6254.381		-95.01428	
26.85603	6249.107		-94.86166	
26.91002	6243.842		-94.70693	
26.964	6238.596		-94.55132	
27.018	6233.371		-94.39594	
27.07199	6228.173		-94.24192	
27.12597	6223.007		-94.09025	
27.17996	6217.864		-93.94186	
27.23395	6212.737		-93.79758	
27.28794	6207.626		-93.65814	
27.34193	6202.531		-93.52422	
27.39592	6197.458		-93.39644	
27.44991	6192.426		-93.27536	
27.5039	6187.452		-93.16149	
27.55789	6182.546		-93.0553	
27.61188	6177.714		-92.95721	
27.66587	6172.95		-92.86761	
27.71986	6168.236		-92.7868	
27.77385	6163.551		-92.71491	
27.82784	6158.882		-92.65198	
27.88183	6154.212		-92.59781	
27.93582	6149.528		-92.55209	
27.98981	6144.82		-92.51435	
28.0438	6140.085		-92.48407	
28.09779	6135.317		-92.46066	
28.15178	6130.504		-92.44345	
28.20577	6125.637		-92.43182	
28.25976	6120.714		-92.4251	
28.31375	6115.746		-92.42266	
28.36774	6110.752		-92.4239	
28.42173	6105.753		-92.42824	
28.47572	6100.771		-92.43514	
28.52971	6095.813		-92.44409	
28.5837	6090.873		-92.45463	
28.63769	6085.93		-92.46632	
28.69168	6080.976		-92.47879	
28.74566	6076.008		-92.4917	
28.79965	6071.03		-92.50474	
28.85364	6066.051		-92.51761	
28.90763	6061.078		-92.53001	
28.96162	6056.112		-92.54158	
29.01561	6051.151		-92.552	
29.0696	6046.195		-92.5609	
29.12359	6041.239		-92.56792	
29.17758	6036.277		-92.57272	
29.23157	6031.308		-92.57504	
29.28556	6026.323		-92.57463	
29.33955	6021.323		-92.57136	
29.39354	6016.31		-92.56513	
29.44753	6011.292		-92.55598	
29.50152	6006.264		-92.54399	
29.55551	6001.209		-92.52934	
29.6095	5996.12		-92.51228	
29.66349	5990.99		-92.4931	
29.71748	5985.817		-92.47217	
29.77147	5980.607		-92.44986	
29.82546	5975.366		-92.42656	
29.87945	5970.089		-92.40263	
29.93344	5964.779		-92.37846	
29.98743	5959.446		-92.35435	
30.04142	5954.108		-92.33061	
30.09541	5948.787		-92.30743	
30.1494	5943.5		-92.28497	
30.20339	5938.255		-92.2633	
30.25738	5933.056		-92.2425	
30.31137	5927.904		-92.22261	
30.36535	5922.802		-92.20367	
30.41935	5917.758		-92.18571	
30.47334	5912.777		-92.16875	
30.52732	5907.861		-92.15283	
30.58131	5902.996		-92.13791	
30.6353	5898.16		-92.12394	
30.68929	5893.33		-92.11084	
30.74328	5888.48		-92.09852	
30.79727	5883.592		-92.08689	
30.85126	5878.662		-92.0759	
30.90525	5873.697		-92.06541	
30.95924	5868.717		-92.05532	
31.01323	5863.75		-92.04543	
31.06722	5858.821		-92.03551	
31.12121	5853.951		-92.02526	
31.1752	5849.153		-92.01444	
31.22919	5844.427		-92.00285	
31.28318	5839.756		-91.99036	
31.33717	5835.121		-91.97696	
31.39116	5830.503		-91.96268	
31.44515	5825.897		-91.94764	
31.49914	5821.297		-91.93202	
31.55313	5816.696		-91.91608	
31.60712	5812.085		-91.90014	
31.66111	5807.452		-91.88457	
31.7151	5802.785		-91.86985	
31.76909	5798.076		-91.85646	
31.82308	5793.315		-91.84496	
31.87707	5788.506		-91.83593	
31.93106	5783.642		-91.83002	
31.98505	5778.722		-91.82778	
32.03904	5773.759		-91.8297	
32.09303	5768.761		-91.83608	
32.14701	5763.738		-91.84715	
32.201	5758.689		-91.86296	
32.25499	5753.605		-91.8834	
32.30898	5748.48		-91.90817	
32.36297	5743.317		-91.93684	
32.41696	5738.119		-91.96882	
32.47095	5732.887		-92.00337	
32.52494	5727.617		-92.0397	
32.57893	5722.321		-92.07691	
32.63292	5717.013		-92.11411	
32.68691	5711.708		-92.15032	
32.7409	5706.423		-92.18465	
32.79489	5701.171		-92.21619	
32.84888	5695.959		-92.24414	
32.90287	5690.789		-92.26777	
32.95686	5685.661		-92.2864	
33.01085	5680.575		-92.29945	
33.06484	5675.528		-92.30637	
33.11883	5670.517		-92.30663	
33.17282	5665.551		-92.2998	
33.22681	5660.638		-92.28551	
33.2808	5655.776		-92.26348	
33.33479	5650.946		-92.23351	
33.38878	5646.129		-92.19546	
33.44277	5641.315		-92.14931	
33.49676	5636.494		-92.09511	
33.55075	5631.651		-92.03308	
33.60474	5626.779		-91.96354	
33.65873	5621.882		-91.88696	
33.71272	5616.956		-91.80391	
33.7667	5611.997		-91.71511	
33.82069	5607.004		-91.62139	
33.87468	5601.972		-91.52368	
33.92867	5596.904		-91.42298	
33.98266	5591.809		-91.32034	
34.03666	5586.689		-91.21677	
34.09064	5581.55		-91.11324	
34.14463	5576.398		-91.01064	
34.19862	5571.235		-90.90976	
34.25261	5566.069		-90.81122	
34.3066	5560.912		-90.71549	
34.36059	5555.78		-90.62292	
34.41458	5550.683		-90.53365	
34.46857	5545.619		-90.44773	
34.52256	5540.59		-90.3651	
34.57655	5535.607		-90.28562	
34.63054	5530.679		-90.20911	
34.68453	5525.804		-90.13531	
34.73852	5520.98		-90.06392	
34.79251	5516.209		-89.99457	
34.8465	5511.497		-89.9269	
34.90049	5506.842		-89.86054	
34.95448	5502.243		-89.79515	
35.00847	5497.69		-89.73038	
35.06246	5493.175		-89.66594	
35.11645	5488.689		-89.60155	
35.17044	5484.227		-89.53698	
35.22443	5479.781		-89.47199	
35.27842	5475.333		-89.40634	
35.33241	5470.869		-89.33978	
35.38639	5466.378		-89.27204	
35.44038	5461.852		-89.20291	
35.49437	5457.277		-89.13223	
35.54837	5452.648		-89.05985	
35.60236	5447.961		-88.98575	
35.65635	5443.223		-88.90994	
35.71033	5438.441		-88.83256	
35.76432	5433.62		-88.75378	
35.81831	5428.756		-88.67382	
35.8723	5423.856		-88.59299	
35.92629	5418.934		-88.51162	
35.98028	5414.001		-88.4301	
36.03427	5409.061		-88.34886	
36.08826	5404.111		-88.26836	
36.14225	5399.153		-88.18904	
36.19624	5394.183		-88.11132	
36.25023	5389.205		-88.03553	
36.30422	5384.226		-87.96186	
36.35821	5379.253		-87.89041	
36.4122	5374.283		-87.82112	
36.46619	5369.314		-87.75385	
36.52018	5364.36		-87.68836	
36.57417	5359.438		-87.62436	
36.62816	5354.563		-87.56149	
36.68215	5349.735		-87.49934	
36.73614	5344.949		-87.43745	
36.79013	5340.206		-87.37528	
36.84412	5335.506		-87.31229	
36.89811	5330.835		-87.24794	
36.9521	5326.179		-87.18172	
37.00608	5321.525		-87.1132	
37.06008	5316.855		-87.04205	
37.11407	5312.154		-86.96806	
37.16806	5307.415		-86.89109	
37.22205	5302.637		-86.81111	
37.27604	5297.833		-86.72813	
37.33002	5293.025		-86.64225	
37.38401	5288.239		-86.55361	
37.438	5283.494		-86.46244	
37.49199	5278.802		-86.36901	
37.54598	5274.165		-86.27362	
37.59997	5269.577		-86.17661	
37.65396	5265.03		-86.07839	
37.70795	5260.506		-85.97941	
37.76194	5255.989		-85.88013	
37.81593	5251.468		-85.78103	
37.86992	5246.944		-85.68256	
37.92391	5242.417		-85.58514	
37.9779	5237.88		-85.4892	
38.03189	5233.332		-85.39514	
38.08588	5228.779		-85.30342	
38.13987	5224.229		-85.21453	
38.19386	5219.684		-85.12903	
38.24785	5215.148		-85.0475	
38.30184	5210.629		-84.97054	
38.35583	5206.127		-84.89874	
38.40982	5201.639		-84.83265	
38.46381	5197.166		-84.77281	
38.5178	5192.708		-84.71968	
38.57179	5188.257		-84.67364	
38.62578	5183.804		-84.63496	
38.67977	5179.326		-84.60378	
38.73376	5174.809		-84.58011	
38.78775	5170.251		-84.5638	
38.84174	5165.66		-84.55463	
38.89573	5161.055		-84.55221	
38.94971	5156.471		-84.55613	
39.0037	5151.933		-84.56592	
39.05769	5147.448		-84.58109	
39.11168	5143.01		-84.60117	
39.16567	5138.604		-84.62568	
39.21966	5134.206		-84.65414	
39.27365	5129.801		-84.68605	
39.32764	5125.381		-84.72093	
39.38163	5120.945		-84.75829	
39.43562	5116.49		-84.79761	
39.48961	5112.011		-84.83836	
39.5436	5107.501		-84.88001	
39.59759	5102.954		-84.92197	
39.65158	5098.366		-84.96365	
39.70557	5093.74		-85.00444	
39.75956	5089.082		-85.04376	
39.81355	5084.409		-85.08102	
39.86754	5079.744		-85.11562	
39.92153	5075.095		-85.14696	
39.97552	5070.468		-85.17439	
40.02951	5065.859		-85.1973	
40.0835	5061.274		-85.21507	
40.13749	5056.709		-85.22717	
40.19148	5052.152		-85.23315	
40.24547	5047.583		-85.23273	
40.29946	5042.979		-85.22572	
40.35345	5038.329		-85.21214	
40.40744	5033.639		-85.19218	
40.46143	5028.924		-85.16616	
40.51542	5024.209		-85.13448	
40.5694	5019.518		-85.09769	
40.62339	5014.863		-85.05636	
40.67738	5010.238		-85.01107	
40.73137	5005.626		-84.96239	
40.78536	5001.006		-84.91084	
40.83936	4996.354		-84.85687	
40.89334	4991.661		-84.80093	
40.94733	4986.918		-84.74336	
41.00132	4982.126		-84.68444	
41.05531	4977.291		-84.62435	
41.1093	4972.417		-84.56323	
41.16329	4967.507		-84.50116	
41.21728	4962.573		-84.43816	
41.27127	4957.64		-84.37422	
41.32526	4952.729		-84.30942	
41.37925	4947.862		-84.2438	
41.43324	4943.055		-84.17751	
41.48723	4938.316		-84.11066	
41.54122	4933.652		-84.04342	
41.59521	4929.059		-83.97588	
41.6492	4924.53		-83.90815	
41.70319	4920.044		-83.84027	
41.75718	4915.58		-83.77228	
41.81117	4911.122		-83.70417	
41.86516	4906.665		-83.63594	
41.91915	4902.215		-83.56753	
41.97314	4897.782		-83.49884	
42.02713	4893.379		-83.4297	
42.08112	4889.021		-83.35993	
42.13511	4884.73		-83.28932	
42.18909	4880.517		-83.2177	
42.24308	4876.376		-83.14498	
42.29707	4872.295		-83.07116	
42.35107	4868.249		-82.9964	
42.40506	4864.208		-82.92097	
42.45905	4860.147		-82.84523	
42.51303	4856.054		-82.76962	
42.56702	4851.917		-82.69462	
42.62101	4847.727		-82.62077	
42.675	4843.475		-82.5486	
42.72899	4839.162		-82.4787	
42.78298	4834.791		-82.41161	
42.83697	4830.365		-82.34793	
42.89096	4825.887		-82.28821	
42.94495	4821.368		-82.23296	
42.99894	4816.822		-82.1826	
43.05293	4812.264		-82.13744	
43.10692	4807.701		-82.09758	
43.16091	4803.138		-82.063	
43.2149	4798.583		-82.03345	
43.26889	4794.043		-82.00859	
43.32288	4789.519		-81.98798	
43.37687	4785.006		-81.97116	
43.43086	4780.499		-81.95764	
43.48485	4775.992		-81.94691	
43.53884	4771.487		-81.93842	
43.59283	4766.99		-81.93163	
43.64682	4762.505		-81.92602	
43.70081	4758.034		-81.92104	
43.7548	4753.57		-81.91616	
43.80878	4749.116		-81.91089	
43.86278	4744.669		-81.90472	
43.91677	4740.231		-81.89713	
43.97076	4735.795		-81.88759	
44.02475	4731.355		-81.87551	
44.07874	4726.914		-81.86032	
44.13272	4722.465		-81.84143	
44.18671	4718.008		-81.8183	
44.2407	4713.549		-81.79037	
44.29469	4709.098		-81.75724	
44.34868	4704.658		-81.71855	
44.40267	4700.229		-81.6741	
44.45666	4695.81		-81.62375	
44.51065	4691.398		-81.56753	
44.56464	4686.989		-81.50554	
44.61863	4682.571		-81.438	
44.67262	4678.138		-81.36529	
44.72661	4673.692		-81.28786	
44.7806	4669.232		-81.20632	
44.83459	4664.75		-81.12135	
44.88858	4660.242		-81.03371	
44.94257	4655.706		-80.94418	
44.99656	4651.147		-80.85356	
45.05055	4646.58		-80.76261	
45.10454	4642.021		-80.67201	
45.15853	4637.492		-80.58236	
45.21252	4633.015		-80.49412	
45.26651	4628.596		-80.40765	
45.3205	4624.232		-80.3232	
45.37449	4619.908		-80.24097	
45.42848	4615.613		-80.161	
45.48247	4611.339		-80.08333	
45.53646	4607.081		-80.00792	
45.59045	4602.83		-79.93472	
45.64444	4598.578		-79.86366	
45.69843	4594.318		-79.79467	
45.75241	4590.052		-79.72771	
45.8064	4585.788		-79.66277	
45.86039	4581.527		-79.59991	
45.91438	4577.265		-79.53918	
45.96837	4573.004		-79.4807	
46.02236	4568.765		-79.4246	
46.07635	4564.561		-79.37104	
46.13034	4560.395		-79.32021	
46.18433	4556.266		-79.27221	
46.23832	4552.172		-79.22717	
46.29231	4548.109		-79.1851	
46.3463	4544.071		-79.14601	
46.40029	4540.043		-79.10982	
46.45428	4536.013		-79.07635	
46.50827	4531.973		-79.04544	
46.56226	4527.913		-79.01682	
46.61625	4523.826		-78.99029	
46.67024	4519.708		-78.96561	
46.72423	4515.561		-78.94264	
46.77822	4511.385		-78.92126	
46.83221	4507.188		-78.90141	
46.8862	4502.971		-78.88308	
46.94019	4498.733		-78.86625	
46.99418	4494.477		-78.85092	
47.04817	4490.199		-78.8371	
47.10216	4485.897		-78.82472	
47.15615	4481.574		-78.81367	
47.21014	4477.235		-78.80372	
47.26413	4472.887		-78.7946	
47.31812	4468.533		-78.7859	
47.3721	4464.171		-78.77711	
47.42609	4459.806		-78.7677	
47.48008	4455.444		-78.75705	
47.53407	4451.087		-78.74456	
47.58806	4446.736		-78.72964	
47.64205	4442.396		-78.71172	
47.69604	4438.069		-78.69019	
47.75003	4433.771		-78.66451	
47.80402	4429.507		-78.63413	
47.85801	4425.27		-78.59859	
47.912	4421.044		-78.55748	
47.96599	4416.817		-78.51053	
48.01998	4412.582		-78.45759	
48.07397	4408.325		-78.39863	
48.12796	4404.042		-78.33369	
48.18195	4399.733		-78.26295	
48.23594	4395.409		-78.18658	
48.28993	4391.08		-78.10484	
48.34392	4386.751		-78.01804	
48.39791	4382.422		-77.92645	
48.4519	4378.09		-77.83039	
48.50589	4373.753		-77.73018	
48.55988	4369.412		-77.62614	
48.61387	4365.066		-77.51864	
48.66786	4360.71		-77.40802	
48.72185	4356.343		-77.29468	
48.77584	4351.969		-77.1791	
48.82983	4347.586		-77.06181	
48.88382	4343.194		-76.94339	
48.93781	4338.802		-76.82449	
48.99179	4334.428		-76.70576	
49.04578	4330.094		-76.58789	
49.09977	4325.819		-76.47157	
49.15376	4321.614		-76.35746	
49.20776	4317.485		-76.24622	
49.26175	4313.427		-76.13847	
49.31573	4309.425		-76.03474	
49.36972	4305.456		-75.93546	
49.42371	4301.506		-75.84098	
49.4777	4297.563		-75.75155	
49.53169	4293.617		-75.66733	
49.58568	4289.661		-75.58842	
49.63967	4285.697		-75.51479	
49.69366	4281.734		-75.44631	
49.74765	4277.782		-75.38278	
49.80164	4273.85		-75.32389	
49.85563	4269.949		-75.26931	
49.90962	4266.087		-75.21867	
49.96361	4262.263		-75.17168	
50.0176	4258.464		-75.12803	
50.07159	4254.678		-75.08747	
50.12558	4250.887		-75.04974	
50.17957	4247.079		-75.01461	
50.23356	4243.251		-74.98187	
50.28755	4239.402		-74.95135	
50.34154	4235.538		-74.92289	
50.39553	4231.664		-74.89634	
50.44952	4227.783		-74.87156	
50.50351	4223.896		-74.84843	
50.5575	4220.001		-74.82686	
50.61148	4216.098		-74.80674	
50.66547	4212.192		-74.788	
50.71947	4208.293		-74.77061	
50.77346	4204.408		-74.75457	
50.82745	4200.532		-74.7399	
50.88144	4196.657		-74.72659	
50.93542	4192.771		-74.71461	
50.98941	4188.856		-74.70388	
51.0434	4184.897		-74.69426	
51.09739	4180.886		-74.68561	
51.15138	4176.82		-74.67775	
51.20537	4172.708		-74.67053	
51.25936	4168.551		-74.66381	
51.31335	4164.349		-74.65742	
51.36734	4160.102		-74.65121	
51.42133	4155.816		-74.64498	
51.47532	4151.501		-74.63849	
51.52931	4147.167		-74.63148	
51.5833	4142.827		-74.62366	
51.63729	4138.486		-74.61466	
51.69128	4134.143		-74.60409	
51.74527	4129.793		-74.59148	
51.79926	4125.438		-74.57634	
51.85325	4121.086		-74.55816	
51.90724	4116.752		-74.53641	
51.96123	4112.448		-74.51061	
52.01522	4108.185		-74.4803	
52.06921	4103.971		-74.44505	
52.1232	4099.798		-74.40449	
52.17719	4095.656		-74.35831	
52.23118	4091.549		-74.30629	
52.28517	4087.48		-74.2483	
52.33916	4083.453		-74.1843	
52.39315	4079.477		-74.11433	
52.44714	4075.547		-74.03852	
52.50113	4071.651		-73.95703	
52.55511	4067.774		-73.87011	
52.6091	4063.909		-73.77805	
52.66309	4060.055		-73.68124	
52.71708	4056.209		-73.58018	
52.77107	4052.366		-73.47544	
52.82506	4048.526		-73.36769	
52.87905	4044.685		-73.25762	
52.93304	4040.835		-73.14592	
52.98703	4036.968		-73.03326	
53.04102	4033.084		-72.9203	
53.09501	4029.189		-72.80764	
53.149	4025.299		-72.69588	
53.20299	4021.417		-72.58559	
53.25698	4017.54		-72.47736	
53.31097	4013.656		-72.37171	
53.36496	4009.757		-72.2691	
53.41895	4005.833		-72.16998	
53.47294	4001.887		-72.07468	
53.52693	3997.933		-71.98354	
53.58092	3993.992		-71.89679	
53.63491	3990.079		-71.81464	
53.6889	3986.204		-71.73726	
53.74289	3982.367		-71.66473	
53.79688	3978.563		-71.59714	
53.85087	3974.79		-71.53443	
53.90486	3971.04		-71.47653	
53.95885	3967.314		-71.42327	
54.01284	3963.619		-71.37444	
54.06683	3959.949		-71.32977	
54.12082	3956.295		-71.28901	
54.1748	3952.649		-71.25184	
54.22879	3949.006		-71.21795	
54.28278	3945.354		-71.187	
54.33677	3941.689		-71.15867	
54.39076	3938.005		-71.13264	
54.44475	3934.3		-71.10864	
54.49874	3930.57		-71.08637	
54.55273	3926.814		-71.0656	
54.60672	3923.033		-71.04607	
54.66071	3919.229		-71.02759	
54.7147	3915.405		-71.00995	
54.76869	3911.566		-70.99301	
54.82268	3907.719		-70.97662	
54.87667	3903.862		-70.96065	
54.93066	3899.987		-70.94495	
54.98465	3896.09		-70.92937	
55.03864	3892.174		-70.91375	
55.09263	3888.24		-70.89793	
55.14662	3884.294		-70.88175	
55.20061	3880.345		-70.86507	
55.2546	3876.398		-70.84769	
55.30859	3872.451		-70.82937	
55.36258	3868.495		-70.80981	
55.41657	3864.528		-70.78866	
55.47056	3860.549		-70.76551	
55.52455	3856.56		-70.73997	
55.57854	3852.572		-70.7116	
55.63253	3848.594		-70.68001	
55.68652	3844.636		-70.64479	
55.74051	3840.704		-70.6056	
55.79449	3836.799		-70.56205	
55.84848	3832.922		-70.51381	
55.90247	3829.077		-70.46059	
55.95646	3825.258		-70.40216	
56.01046	3821.456		-70.33837	
56.06445	3817.668		-70.26921	
56.11843	3813.895		-70.19474	
56.17242	3810.14		-70.1151	
