T[Â°C]	330nm [counts / mm]	S.D.	First derivative	S.D. of first derivative
19.99929	7983.413		-112.884	
20.05328	7976.815		-112.8531	
20.10727	7970.224		-112.8223	
20.16126	7963.638		-112.7916	
20.21525	7957.061		-112.7608	
20.26924	7950.491		-112.7302	
20.32323	7943.931		-112.6995	
20.37722	7937.384		-112.6689	
20.43121	7930.85		-112.6383	
20.4852	7924.33		-112.6076	
20.53919	7917.823		-112.577	
20.59318	7911.33		-112.5462	
20.64717	7904.848		-112.5154	
20.70116	7898.374		-112.4845	
20.75515	7891.904		-112.4535	
20.80914	7885.434		-112.4223	
20.86312	7878.958		-112.391	
20.91712	7872.47		-112.3594	
20.97111	7865.973		-112.3276	
21.02509	7859.831		-112.2955	
21.07909	7853.768		-112.2631	
21.13308	7847.774		-112.2303	
21.18707	7841.849		-112.1971	
21.24105	7835.998		-112.1635	
21.29505	7830.21		-112.1293	
21.34904	7824.461		-112.0945	
21.40302	7818.72		-112.0591	
21.45702	7812.978		-112.0231	
21.51101	7807.234		-111.9863	
21.56499	7801.489		-111.9487	
21.61898	7795.742		-111.9103	
21.67298	7789.995		-111.871	
21.72696	7784.251		-111.8309	
21.78095	7778.501		-111.79	
21.83494	7772.725		-111.7482	
21.88894	7766.9		-111.7057	
21.94292	7761.007		-111.6624	
21.99691	7755.036		-111.6185	
22.05091	7748.983		-111.574	
22.10489	7742.853		-111.5291	
22.15888	7736.651		-111.4839	
22.21287	7730.376		-111.4386	
22.26686	7724.035		-111.3934	
22.32085	7717.643		-111.3487	
22.37484	7711.227		-111.3046	
22.42883	7704.821		-111.2618	
22.48282	7698.457		-111.2207	
22.53681	7692.157		-111.1819	
22.5908	7685.923		-111.1462	
22.64479	7679.734		-111.1011	
22.69878	7673.567		-111.0553	
22.75277	7667.399		-111.008	
22.80676	7661.217		-110.9583	
22.86075	7655.01		-110.9054	
22.91474	7648.783		-110.8482	
22.96873	7642.553		-110.7859	
23.02272	7636.35		-110.7176	
23.07671	7630.196		-110.6424	
23.1307	7624.109		-110.5599	
23.18469	7618.121		-110.4693	
23.23868	7612.255		-110.3703	
23.29267	7606.515		-110.2627	
23.34666	7600.869		-110.1462	
23.40065	7595.288		-110.0208	
23.45464	7589.746		-109.8863	
23.50863	7584.218		-109.7428	
23.56262	7578.673		-109.5902	
23.61661	7573.077		-109.4287	
23.6706	7567.403		-109.2588	
23.72459	7561.637		-109.0809	
23.77858	7555.775		-108.8958	
23.83257	7549.825		-108.7044	
23.88656	7543.81		-108.5078	
23.94055	7537.767		-108.3073	
23.99454	7531.729		-108.1044	
24.04853	7525.729		-107.9008	
24.10252	7519.779		-107.6982	
24.15651	7513.878		-107.4982	
24.2105	7508.002		-107.3025	
24.26449	7502.114		-107.1125	
24.31848	7496.188		-106.9297	
24.37247	7490.209		-106.7552	
24.42646	7484.163		-106.5898	
24.48045	7478.041		-106.4345	
24.53444	7471.85		-106.2895	
24.58843	7465.61		-106.1552	
24.64242	7459.365		-106.0315	
24.69641	7453.167		-105.9185	
24.7504	7447.063		-105.816	
24.80439	7441.09		-105.7235	
24.85838	7435.273		-105.6408	
24.91237	7429.62		-105.5675	
24.96636	7424.124		-105.5029	
25.02035	7418.762		-105.4466	
25.07434	7413.513		-105.3978	
25.12833	7408.352		-105.3558	
25.18232	7403.259		-105.3198	
25.23631	7398.202		-105.2891	
25.2903	7393.14		-105.2631	
25.34429	7388.038		-105.241	
25.39828	7382.879		-105.2223	
25.45227	7377.664		-105.2063	
25.50626	7372.405		-105.1925	
25.56025	7367.124		-105.1804	
25.61424	7361.833		-105.1695	
25.66823	7356.531		-105.1591	
25.72222	7351.212		-105.149	
25.77621	7345.866		-105.1385	
25.8302	7340.478		-105.1275	
25.88419	7335.034		-105.1157	
25.93818	7329.53		-105.1027	
25.99217	7323.964		-105.0885	
26.04616	7318.345		-105.0732	
26.10015	7312.683		-105.0567	
26.15414	7306.98		-105.0391	
26.20813	7301.228		-105.0206	
26.26212	7295.429		-105.0013	
26.31611	7289.59		-104.9815	
26.3701	7283.722		-104.9612	
26.42409	7277.828		-104.9405	
26.47808	7271.903		-104.9196	
26.53207	7265.945		-104.8984	
26.58606	7259.962		-104.8768	
26.64005	7253.975		-104.8546	
26.69404	7248.005		-104.8316	
26.74803	7242.066		-104.8073	
26.80202	7236.166		-104.7815	
26.85601	7230.307		-104.7537	
26.91	7224.495		-104.7235	
26.96399	7218.723		-104.6907	
27.01798	7212.984		-104.6548	
27.07197	7207.267		-104.6154	
27.12596	7201.566		-104.5725	
27.17995	7195.869		-104.5259	
27.23394	7190.15		-104.4754	
27.28793	7184.382		-104.4212	
27.34192	7178.542		-104.3633	
27.39591	7172.622		-104.3018	
27.4499	7166.628		-104.2367	
27.50389	7160.582		-104.1684	
27.55788	7154.519		-104.0971	
27.61187	7148.473		-104.0229	
27.66586	7142.47		-103.9462	
27.71985	7136.533		-103.8671	
27.77384	7130.671		-103.7857	
27.82783	7124.886		-103.7023	
27.88182	7119.173		-103.6167	
27.93581	7113.518		-103.529	
27.9898	7107.906		-103.4391	
28.04379	7102.334		-103.3469	
28.09778	7096.801		-103.2524	
28.15177	7091.3		-103.1554	
28.20576	7085.839		-103.0559	
28.25975	7080.433		-102.9538	
28.31374	7075.092		-102.8493	
28.36773	7069.814		-102.7425	
28.42172	7064.589		-102.6338	
28.47571	7059.406		-102.5238	
28.5297	7054.26		-102.4132	
28.58369	7049.149		-102.3027	
28.63768	7044.068		-102.1929	
28.69167	7039.018		-102.0848	
28.74566	7033.983		-101.9789	
28.79965	7028.939		-101.8757	
28.85364	7023.866		-101.7757	
28.90763	7018.755		-101.6793	
28.96162	7013.597		-101.5867	
29.01561	7008.383		-101.4981	
29.0696	7003.117		-101.4136	
29.12359	6997.81		-101.3335	
29.17758	6992.472		-101.258	
29.23157	6987.102		-101.1873	
29.28556	6981.696		-101.1217	
29.33955	6976.262		-101.0616	
29.39354	6970.799		-101.007	
29.44753	6965.303		-100.9584	
29.50152	6959.766		-100.916	
29.55551	6954.182		-100.88	
29.6095	6948.548		-100.8503	
29.66349	6942.866		-100.827	
29.71748	6937.142		-100.8099	
29.77147	6931.39		-100.7983	
29.82546	6925.631		-100.7919	
29.87945	6919.882		-100.7897	
29.93344	6914.154		-100.7909	
29.98743	6908.464		-100.7946	
30.04142	6902.823		-100.7995	
30.09541	6897.224		-100.8044	
30.1494	6891.657		-100.8081	
30.20339	6886.122		-100.8092	
30.25738	6880.618		-100.8065	
30.31137	6875.141		-100.7989	
30.36536	6869.685		-100.7852	
30.41935	6864.243		-100.7647	
30.47334	6858.814		-100.7368	
30.52732	6853.405		-100.7013	
30.58132	6848.011		-100.658	
30.63531	6842.631		-100.6071	
30.68929	6837.268		-100.549	
30.74329	6831.92		-100.4842	
30.79728	6826.587		-100.4134	
30.85126	6821.265		-100.3373	
30.90525	6815.949		-100.2566	
30.95925	6810.625		-100.1722	
31.01324	6805.282		-100.0849	
31.06722	6799.913		-99.99536	
31.12122	6794.509		-99.90446	
31.17521	6789.062		-99.81292	
31.22919	6783.56		-99.72144	
31.28318	6778.007		-99.63074	
31.33718	6772.414		-99.54153	
31.39116	6766.788		-99.45455	
31.44515	6761.14		-99.37055	
31.49914	6755.487		-99.29026	
31.55313	6749.85		-99.21432	
31.60712	6744.246		-99.14328	
31.66111	6738.683		-99.07755	
31.71511	6733.162		-99.01738	
31.76909	6727.68		-98.96285	
31.82308	6722.23		-98.9139	
31.87707	6716.809		-98.87032	
31.93106	6711.423		-98.83172	
31.98505	6706.079		-98.79757	
32.03904	6700.785		-98.76717	
32.09303	6695.548		-98.73969	
32.14702	6690.384		-98.7142	
32.20102	6685.309		-98.6897	
32.255	6680.328		-98.66521	
32.30899	6675.436		-98.63975	
32.36298	6670.61		-98.61245	
32.41697	6665.819		-98.58253	
32.47096	6661.039		-98.54935	
32.52495	6656.254		-98.5125	
32.57895	6651.439		-98.47171	
32.63293	6646.58		-98.42693	
32.68692	6641.668		-98.37828	
32.74091	6636.701		-98.32607	
32.7949	6631.674		-98.27082	
32.84889	6626.581		-98.21315	
32.90288	6621.416		-98.15375	
32.95687	6616.178		-98.09335	
33.01086	6610.875		-98.03269	
33.06485	6605.512		-97.97245	
33.11884	6600.091		-97.9132	
33.17283	6594.619		-97.85544	
33.22682	6589.106		-97.79955	
33.28081	6583.557		-97.74585	
33.3348	6577.971		-97.69456	
33.38879	6572.35		-97.64584	
33.44278	6566.705		-97.59982	
33.49677	6561.042		-97.5565	
33.55076	6555.377		-97.51579	
33.60475	6549.725		-97.47755	
33.65874	6544.101		-97.44154	
33.71273	6538.513		-97.40741	
33.76672	6532.958		-97.3748	
33.82071	6527.435		-97.34326	
33.8747	6521.941		-97.31228	
33.92869	6516.47		-97.28123	
33.98268	6511.01		-97.24942	
34.03667	6505.553		-97.21605	
34.09066	6500.107		-97.18027	
34.14465	6494.686		-97.14116	
34.19864	6489.305		-97.09777	
34.25263	6483.986		-97.0492	
34.30662	6478.745		-96.99459	
34.36061	6473.582		-96.93317	
34.4146	6468.495		-96.86428	
34.46859	6463.479		-96.78743	
34.52258	6458.52		-96.70228	
34.57657	6453.598		-96.60876	
34.63056	6448.694		-96.50699	
34.68455	6443.79		-96.39735	
34.73854	6438.87		-96.28046	
34.79253	6433.92		-96.1572	
34.84652	6428.926		-96.02859	
34.90051	6423.883		-95.89581	
34.9545	6418.798		-95.76015	
35.00849	6413.676		-95.62294	
35.06248	6408.51		-95.48559	
35.11647	6403.301		-95.34947	
35.17046	6398.064		-95.21594	
35.22445	6392.814		-95.08624	
35.27844	6387.561		-94.96149	
35.33243	6382.306		-94.84272	
35.38642	6377.054		-94.73071	
35.44041	6371.806		-94.62611	
35.4944	6366.561		-94.52943	
35.54839	6361.325		-94.44102	
35.60238	6356.102		-94.36105	
35.65637	6350.9		-94.28959	
35.71036	6345.734		-94.22662	
35.76435	6340.615		-94.17201	
35.81834	6335.55		-94.12556	
35.87233	6330.537		-94.08697	
35.92632	6325.559		-94.05587	
35.98031	6320.592		-94.03181	
36.0343	6315.632		-94.01425	
36.08829	6310.678		-94.00256	
36.14228	6305.736		-93.99601	
36.19627	6300.817		-93.99384	
36.25026	6295.933		-93.99519	
36.30425	6291.083		-93.99918	
36.35824	6286.267		-94.00483	
36.41223	6281.475		-94.01117	
36.46622	6276.701		-94.01723	
36.52021	6271.937		-94.02209	
36.5742	6267.174		-94.02499	
36.62819	6262.401		-94.02525	
36.68218	6257.612		-94.02235	
36.73617	6252.794		-94.0159	
36.79016	6247.932		-94.00565	
36.84415	6243.005		-93.99149	
36.89814	6238.009		-93.97338	
36.95213	6232.952		-93.95142	
37.00612	6227.843		-93.92577	
37.06011	6222.693		-93.89669	
37.1141	6217.51		-93.86447	
37.16809	6212.298		-93.82943	
37.22208	6207.068		-93.79185	
37.27607	6201.833		-93.75196	
37.33006	6196.588		-93.70993	
37.38405	6191.322		-93.6658	
37.43804	6186.034		-93.61951	
37.49203	6180.731		-93.57092	
37.54602	6175.417		-93.51983	
37.60001	6170.088		-93.46598	
37.654	6164.744		-93.40914	
37.70799	6159.387		-93.3491	
37.76198	6154.029		-93.28564	
37.81597	6148.688		-93.2186	
37.86996	6143.382		-93.14778	
37.92395	6138.123		-93.07307	
37.97794	6132.91		-92.99442	
38.03193	6127.739		-92.91185	
38.08592	6122.601		-92.82539	
38.13991	6117.488		-92.7351	
38.1939	6112.398		-92.6411	
38.24789	6107.325		-92.54346	
38.30188	6102.268		-92.44219	
38.35587	6097.223		-92.33728	
38.40986	6092.192		-92.22863	
38.46385	6087.18		-92.11615	
38.51784	6082.189		-91.99979	
38.57183	6077.223		-91.87952	
38.62582	6072.293		-91.7554	
38.67981	6067.406		-91.62756	
38.7338	6062.558		-91.49622	
38.78779	6057.731		-91.36163	
38.84178	6052.905		-91.22421	
38.89577	6048.063		-91.08439	
38.94976	6043.197		-90.94273	
39.00375	6038.313		-90.7999	
39.05774	6033.409		-90.65658	
39.11172	6028.475		-90.51351	
39.16572	6023.515		-90.37143	
39.21971	6018.561		-90.23105	
39.2737	6013.633		-90.09303	
39.32769	6008.74		-89.95796	
39.38168	6003.881		-89.82635	
39.43567	5999.06		-89.69865	
39.48965	5994.29		-89.57523	
39.54365	5989.578		-89.45638	
39.59764	5984.926		-89.34237	
39.65163	5980.332		-89.23341	
39.70562	5975.783		-89.12965	
39.75961	5971.271		-89.03123	
39.81359	5966.783		-88.93821	
39.86758	5962.3		-88.85056	
39.92158	5957.808		-88.7682	
39.97557	5953.297		-88.69115	
40.02956	5948.764		-88.61938	
40.08355	5944.209		-88.55291	
40.13754	5939.625		-88.49177	
40.19152	5935.004		-88.43599	
40.24551	5930.334		-88.38558	
40.29951	5925.617		-88.3405	
40.3535	5920.861		-88.30064	
40.40749	5916.083		-88.26582	
40.46148	5911.291		-88.23576	
40.51546	5906.482		-88.21016	
40.56945	5901.655		-88.18859	
40.62344	5896.814		-88.17057	
40.67743	5891.967		-88.15558	
40.73143	5887.115		-88.14304	
40.78542	5882.261		-88.13237	
40.83941	5877.414		-88.12294	
40.89339	5872.583		-88.11414	
40.94738	5867.779		-88.1054	
41.00137	5862.998		-88.09619	
41.05536	5858.221		-88.08607	
41.10936	5853.435		-88.07464	
41.16335	5848.637		-88.06159	
41.21733	5843.833		-88.04666	
41.27132	5839.031		-88.02959	
41.32531	5834.235		-88.01015	
41.3793	5829.443		-87.98816	
41.43329	5824.657		-87.96346	
41.48729	5819.877		-87.9359	
41.54128	5815.102		-87.9054	
41.59526	5810.328		-87.87183	
41.64925	5805.554		-87.83502	
41.70324	5800.781		-87.79484	
41.75723	5796.012		-87.75113	
41.81122	5791.244		-87.70378	
41.86522	5786.474		-87.65267	
41.9192	5781.692		-87.59771	
41.97319	5776.896		-87.53886	
42.02718	5772.087		-87.47616	
42.08117	5767.27		-87.40971	
42.13516	5762.444		-87.33968	
42.18915	5757.601		-87.26634	
42.24314	5752.731		-87.19	
42.29713	5747.831		-87.11105	
42.35112	5742.909		-87.02987	
42.40511	5737.994		-86.94691	
42.4591	5733.111		-86.86259	
42.51309	5728.275		-86.77734	
42.56708	5723.497		-86.69154	
42.62107	5718.776		-86.60551	
42.67506	5714.105		-86.51942	
42.72905	5709.46		-86.4334	
42.78304	5704.827		-86.34745	
42.83703	5700.197		-86.26157	
42.89102	5695.567		-86.17572	
42.94501	5690.945		-86.08985	
42.999	5686.327		-86.00391	
43.05299	5681.711		-85.91782	
43.10698	5677.103		-85.83161	
43.16097	5672.509		-85.74534	
43.21496	5667.938		-85.65918	
43.26895	5663.399		-85.5734	
43.32294	5658.899		-85.48843	
43.37693	5654.44		-85.40479	
43.43092	5650.023		-85.32307	
43.48491	5645.648		-85.24397	
43.5389	5641.303		-85.1681	
43.59289	5636.975		-85.09603	
43.64688	5632.642		-85.02824	
43.70087	5628.276		-84.96511	
43.75486	5623.858		-84.90691	
43.80885	5619.381		-84.85379	
43.86284	5614.847		-84.80583	
43.91683	5610.259		-84.76297	
43.97082	5605.631		-84.72509	
44.02481	5600.983		-84.69202	
44.0788	5596.333		-84.66351	
44.13279	5591.698		-84.63928	
44.18678	5587.094		-84.61906	
44.24077	5582.536		-84.60253	
44.29476	5578.019		-84.58936	
44.34875	5573.525		-84.57915	
44.40274	5569.038		-84.57146	
44.45673	5564.537		-84.56583	
44.51072	5560.011		-84.56165	
44.56471	5555.457		-84.55829	
44.6187	5550.88		-84.55499	
44.67269	5546.289		-84.5509	
44.72668	5541.688		-84.54512	
44.78067	5537.079		-84.53669	
44.83466	5532.469		-84.5247	
44.88865	5527.87		-84.50829	
44.94264	5523.291		-84.48664	
44.99663	5518.737		-84.459	
45.05062	5514.213		-84.42467	
45.10461	5509.717		-84.38304	
45.1586	5505.242		-84.33364	
45.21259	5500.781		-84.27611	
45.26658	5496.331		-84.2103	
45.32057	5491.879		-84.13628	
45.37456	5487.412		-84.05439	
45.42855	5482.921		-83.96515	
45.48254	5478.397		-83.86929	
45.53653	5473.844		-83.76773	
45.59052	5469.269		-83.66149	
45.64451	5464.673		-83.55174	
45.6985	5460.057		-83.43973	
45.75249	5455.421		-83.32672	
45.80648	5450.762		-83.214	
45.86047	5446.071		-83.10278	
45.91446	5441.337		-82.99416	
45.96845	5436.552		-82.88909	
46.02244	5431.719		-82.78838	
46.07643	5426.841		-82.69266	
46.13042	5421.93		-82.60239	
46.18441	5417.01		-82.51794	
46.2384	5412.109		-82.43946	
46.29239	5407.256		-82.36708	
46.34638	5402.468		-82.30077	
46.40037	5397.754		-82.24039	
46.45436	5393.117		-82.18573	
46.50835	5388.549		-82.13643	
46.56234	5384.045		-82.09205	
46.61633	5379.591		-82.052	
46.67032	5375.176		-82.01562	
46.72431	5370.79		-81.98211	
46.7783	5366.43		-81.95065	
46.83229	5362.104		-81.92036	
46.88628	5357.827		-81.89033	
46.94027	5353.62		-81.8597	
46.99426	5349.498		-81.82764	
47.04825	5345.469		-81.79346	
47.10224	5341.536		-81.75654	
47.15623	5337.697		-81.71642	
47.21022	5333.951		-81.67274	
47.26421	5330.28		-81.62528	
47.3182	5326.653		-81.57398	
47.37219	5323.032		-81.5189	
47.42618	5319.369		-81.46022	
47.48017	5315.623		-81.39829	
47.53416	5311.764		-81.33354	
47.58815	5307.773		-81.26657	
47.64214	5303.64		-81.1981	
47.69613	5299.373		-81.12902	
47.75012	5294.999		-81.06027	
47.80411	5290.552		-80.99291	
47.8581	5286.058		-80.92798	
47.91209	5281.531		-80.86647	
47.96608	5276.984		-80.80931	
48.02007	5272.422		-80.75729	
48.07406	5267.843		-80.71104	
48.12805	5263.238		-80.67106	
48.18204	5258.596		-80.63761	
48.23603	5253.905		-80.61076	
48.29002	5249.157		-80.59039	
48.34401	5244.349		-80.57613	
48.39799	5239.491		-80.56741	
48.45199	5234.605		-80.56351	
48.50598	5229.723		-80.56355	
48.55997	5224.873		-80.5666	
48.61396	5220.083		-80.57166	
48.66795	5215.369		-80.57769	
48.72194	5210.736		-80.58363	
48.77592	5206.184		-80.58835	
48.82992	5201.697		-80.59071	
48.88391	5197.264		-80.58952	
48.9379	5192.875		-80.5836	
48.99189	5188.514		-80.57178	
49.04588	5184.167		-80.55299	
49.09986	5179.829		-80.52625	
49.15385	5175.502		-80.49076	
49.20785	5171.2		-80.44587	
49.26184	5166.946		-80.39114	
49.31583	5162.757		-80.32633	
49.36982	5158.636		-80.25146	
49.42381	5154.578		-80.16671	
49.47779	5150.568		-80.07245	
49.53178	5146.591		-79.96921	
49.58578	5142.616		-79.85772	
49.63977	5138.606		-79.73889	
49.69376	5134.528		-79.61375	
49.74775	5130.364		-79.48345	
49.80173	5126.099		-79.34925	
49.85572	5121.729		-79.21243	
49.90971	5117.261		-79.07432	
49.96371	5112.723		-78.93625	
50.0177	5108.151		-78.79961	
50.07169	5103.584		-78.66572	
50.12568	5099.058		-78.5359	
50.17966	5094.594		-78.41139	
50.23365	5090.2		-78.29337	
50.28764	5085.876		-78.18281	
50.34163	5081.614		-78.08055	
50.39563	5077.398		-77.98714	
50.44962	5073.212		-77.90292	
50.5036	5069.04		-77.82797	
50.55759	5064.873		-77.76221	
50.61158	5060.705		-77.70535	
50.66557	5056.537		-77.65701	
50.71956	5052.377		-77.61663	
50.77356	5048.229		-77.58359	
50.82755	5044.107		-77.55715	
50.88153	5040.034		-77.53648	
50.93552	5036.031		-77.52073	
50.98951	5032.107		-77.509	
51.0435	5028.264		-77.50042	
51.09749	5024.482		-77.49409	
51.15149	5020.728		-77.48922	
51.20547	5016.97		-77.48503	
51.25946	5013.176		-77.4809	
51.31345	5009.329		-77.47626	
51.36744	5005.417		-77.47066	
51.42143	5001.441		-77.46378	
51.47542	4997.406		-77.45535	
51.52942	4993.318		-77.44526	
51.5834	4989.185		-77.43343	
51.63739	4985.018		-77.41991	
51.69138	4980.826		-77.4048	
51.74537	4976.615		-77.38832	
51.79936	4972.386		-77.3707	
51.85335	4968.139		-77.3522	
51.90734	4963.87		-77.33307	
51.96133	4959.586		-77.31355	
52.01532	4955.292		-77.29387	
52.06931	4951.003		-77.27424	
52.1233	4946.723		-77.25483	
52.17729	4942.448		-77.23579	
52.23128	4938.175		-77.21724	
52.28527	4933.899		-77.19924	
52.33926	4929.613		-77.18182	
52.39325	4925.313		-77.16496	
52.44724	4920.987		-77.14855	
52.50123	4916.636		-77.13245	
52.55522	4912.263		-77.11643	
52.60921	4907.875		-77.10015	
52.6632	4903.476		-77.08319	
52.71719	4899.067		-77.06502	
52.77118	4894.645		-77.04504	
52.82517	4890.21		-77.02257	
52.87916	4885.768		-76.99693	
52.93315	4881.334		-76.96742	
52.98714	4876.93		-76.93343	
53.04113	4872.581		-76.89444	
53.09512	4868.304		-76.85001	
53.14911	4864.11		-76.7998	
53.2031	4859.995		-76.74361	
53.25709	4855.942		-76.68134	
53.31108	4851.932		-76.61295	
53.36507	4847.946		-76.53859	
53.41906	4843.976		-76.45849	
53.47305	4840.013		-76.37301	
53.52704	4836.048		-76.28262	
53.58103	4832.081		-76.18781	
53.63502	4828.112		-76.08913	
53.68901	4824.136		-75.9872	
53.743	4820.141		-75.88264	
53.79699	4816.117		-75.77613	
53.85098	4812.057		-75.66836	
53.90497	4807.966		-75.55998	
53.95896	4803.852		-75.45165	
54.01295	4799.732		-75.34395	
54.06694	4795.617		-75.23743	
54.12093	4791.517		-75.13258	
54.17492	4787.443		-75.02987	
54.22891	4783.4		-74.92965	
54.2829	4779.384		-74.83227	
54.33689	4775.381		-74.73798	
54.39088	4771.378		-74.64702	
54.44487	4767.368		-74.55953	
54.49886	4763.343		-74.47566	
54.55285	4759.303		-74.39548	
54.60684	4755.243		-74.31894	
54.66083	4751.172		-74.24596	
54.71482	4747.105		-74.17632	
54.76881	4743.056		-74.10969	
54.8228	4739.033		-74.0457	
54.87679	4735.048		-73.9839	
54.93078	4731.108		-73.92378	
54.98477	4727.219		-73.86485	
55.03876	4723.377		-73.80663	
55.09275	4719.582		-73.74863	
55.14674	4715.832		-73.69043	
55.20073	4712.116		-73.63157	
55.25472	4708.42		-73.57164	
55.30871	4704.725		-73.5103	
55.3627	4701.012		-73.44731	
55.41669	4697.264		-73.38257	
55.47068	4693.467		-73.31607	
55.52467	4689.606		-73.24786	
55.57866	4685.671		-73.17804	
55.63265	4681.667		-73.10667	
55.68664	4677.609		-73.03383	
55.74063	4673.518		-72.95958	
55.79462	4669.414		-72.88393	
55.84861	4665.313		-72.80692	
55.9026	4661.224		-72.72855	
55.95659	4657.144		-72.64887	
56.01058	4653.07		-72.56792	
56.06457	4648.997		-72.48569	
56.11856	4644.92		-72.40219	
56.17255	4640.85		-72.31744	
