T[Â°C]	350nm [counts / mm]	S.D.	First derivative	S.D. of first derivative
20.00051	4055.651		-58.64989	
20.05462	4052.419		-58.61732	
20.10873	4049.194		-58.58486	
20.16283	4045.975		-58.55252	
20.21694	4042.762		-58.52032	
20.27105	4039.553		-58.48824	
20.32516	4036.346		-58.4563	
20.37926	4033.141		-58.42451	
20.43337	4029.935		-58.39287	
20.48748	4026.729		-58.36139	
20.54159	4023.522		-58.33006	
20.59569	4020.315		-58.2989	
20.6498	4017.108		-58.26791	
20.70391	4013.904		-58.2371	
20.75801	4010.705		-58.20646	
20.81212	4007.516		-58.17601	
20.86623	4004.35		-58.14573	
20.92034	4001.234		-58.11563	
20.97445	3998.186		-58.08572	
21.02855	3995.14		-58.05598	
21.08266	3992.085		-58.02641	
21.13677	3989.012		-57.99701	
21.19087	3985.911		-57.96777	
21.24498	3982.778		-57.93869	
21.29909	3979.615		-57.90976	
21.3532	3976.427		-57.88098	
21.4073	3973.222		-57.85235	
21.46141	3970.01		-57.82385	
21.51552	3966.796		-57.79548	
21.56963	3963.586		-57.76722	
21.62373	3960.384		-57.73906	
21.67784	3957.188		-57.71096	
21.73195	3953.998		-57.68292	
21.78606	3950.815		-57.65488	
21.84016	3947.646		-57.6268	
21.89427	3944.498		-57.59864	
21.94838	3941.376		-57.57034	
22.00249	3938.284		-57.54185	
22.05659	3935.218		-57.51309	
22.1107	3932.174		-57.484	
22.16481	3929.147		-57.45451	
22.21891	3926.139		-57.42454	
22.27302	3923.153		-57.39399	
22.32713	3920.19		-57.36281	
22.38124	3917.248		-57.33091	
22.43534	3914.317		-57.29824	
22.48945	3911.385		-57.26477	
22.54356	3908.438		-57.2305	
22.59767	3905.463		-57.19547	
22.65177	3902.457		-57.14204	
22.70588	3899.429		-57.08508	
22.75999	3896.39		-57.02473	
22.8141	3893.347		-56.96122	
22.8682	3890.3		-56.89485	
22.92231	3887.245		-56.82597	
22.97642	3884.178		-56.75498	
23.03053	3881.096		-56.68233	
23.08463	3877.997		-56.60848	
23.13874	3874.877		-56.53395	
23.19285	3871.727		-56.45924	
23.24696	3868.538		-56.38488	
23.30106	3865.308		-56.31136	
23.35517	3862.038		-56.23913	
23.40928	3858.736		-56.16862	
23.46338	3855.413		-56.10017	
23.51749	3852.085		-56.03411	
23.5716	3848.771		-55.97071	
23.62571	3845.48		-55.91019	
23.67982	3842.22		-55.85273	
23.73392	3838.997		-55.79842	
23.78803	3835.815		-55.74732	
23.84214	3832.678		-55.69941	
23.89624	3829.591		-55.65461	
23.95035	3826.554		-55.61277	
24.00446	3823.566		-55.57366	
24.05857	3820.616		-55.53702	
24.11267	3817.697		-55.50252	
24.16678	3814.796		-55.46985	
24.22089	3811.906		-55.43874	
24.275	3809.021		-55.40896	
24.3291	3806.14		-55.38037	
24.38321	3803.266		-55.35289	
24.43732	3800.395		-55.32651	
24.49143	3797.537		-55.30125	
24.54553	3794.701		-55.27716	
24.59964	3791.894		-55.25429	
24.65375	3789.121		-55.23269	
24.70786	3786.379		-55.21243	
24.76196	3783.663		-55.19356	
24.81607	3780.952		-55.17618	
24.87018	3778.225		-55.16032	
24.92429	3775.47		-55.14604	
24.97839	3772.678		-55.13334	
25.0325	3769.847		-55.12223	
25.08661	3766.979		-55.11274	
25.14071	3764.077		-55.10487	
25.19482	3761.151		-55.09871	
25.24893	3758.208		-55.09435	
25.30304	3755.251		-55.09188	
25.35715	3752.284		-55.09141	
25.41125	3749.308		-55.09297	
25.46536	3746.322		-55.09657	
25.51947	3743.327		-55.10218	
25.57357	3740.325		-55.1097	
25.62768	3737.32		-55.11897	
25.68179	3734.315		-55.12978	
25.7359	3731.31		-55.14182	
25.79	3728.301		-55.15473	
25.84411	3725.286		-55.16811	
25.89822	3722.265		-55.18153	
25.95233	3719.239		-55.1945	
26.00643	3716.203		-55.20654	
26.06054	3713.155		-55.21716	
26.11465	3710.097		-55.22585	
26.16876	3707.035		-55.23217	
26.22286	3703.976		-55.23571	
26.27697	3700.926		-55.23613	
26.33108	3697.892		-55.2332	
26.38519	3694.868		-55.22679	
26.43929	3691.839		-55.21684	
26.4934	3688.795		-55.2034	
26.54751	3685.73		-55.18655	
26.60161	3682.646		-55.16644	
26.65572	3679.544		-55.14326	
26.70983	3676.431		-55.11724	
26.76394	3673.309		-55.08865	
26.81804	3670.174		-55.05778	
26.87215	3667.026		-55.02489	
26.92626	3663.868		-54.99025	
26.98037	3660.702		-54.95409	
27.03447	3657.529		-54.91663	
27.08858	3654.354		-54.87811	
27.14269	3651.183		-54.83876	
27.1968	3648.024		-54.79885	
27.2509	3644.884		-54.75861	
27.30501	3641.771		-54.71825	
27.35912	3638.692		-54.67792	
27.41323	3635.652		-54.63773	
27.46733	3632.655		-54.59776	
27.52144	3629.7		-54.55806	
27.57555	3626.779		-54.51865	
27.62966	3623.886		-54.47959	
27.68376	3621.014		-54.44091	
27.73787	3618.153		-54.40269	
27.79198	3615.298		-54.36496	
27.84608	3612.446		-54.32779	
27.90019	3609.607		-54.2912	
27.9543	3606.798		-54.25523	
28.00841	3604.034		-54.2199	
28.06252	3601.323		-54.18522	
28.11662	3598.663		-54.1512	
28.17073	3596.044		-54.11784	
28.22484	3593.448		-54.08515	
28.27894	3590.857		-54.05312	
28.33305	3588.254		-54.02175	
28.38716	3585.62		-53.99108	
28.44127	3582.94		-53.96116	
28.49537	3580.205		-53.93202	
28.54948	3577.417		-53.90372	
28.60359	3574.583		-53.8763	
28.6577	3571.714		-53.84983	
28.7118	3568.823		-53.82442	
28.76591	3565.914		-53.80018	
28.82002	3562.994		-53.77728	
28.87413	3560.07		-53.75588	
28.92823	3557.138		-53.73615	
28.98234	3554.196		-53.71827	
29.03645	3551.249		-53.70238	
29.09056	3548.305		-53.68864	
29.14466	3545.366		-53.67719	
29.19877	3542.424		-53.6681	
29.25288	3539.467		-53.66138	
29.30699	3536.485		-53.65693	
29.36109	3533.467		-53.65458	
29.4152	3530.415		-53.65406	
29.46931	3527.338		-53.65505	
29.52341	3524.246		-53.65721	
29.57752	3521.151		-53.66018	
29.63163	3518.068		-53.66359	
29.68574	3515.014		-53.66709	
29.73985	3512		-53.67035	
29.79395	3509.031		-53.67307	
29.84806	3506.101		-53.67492	
29.90217	3503.199		-53.67561	
29.95627	3500.311		-53.67488	
30.01038	3497.424		-53.67249	
30.06449	3494.523		-53.66822	
30.1186	3491.604		-53.66191	
30.1727	3488.659		-53.65339	
30.22681	3485.69		-53.64245	
30.28092	3482.702		-53.62894	
30.33503	3479.703		-53.61267	
30.38913	3476.698		-53.59354	
30.44324	3473.691		-53.57146	
30.49735	3470.682		-53.54645	
30.55146	3467.673		-53.51859	
30.60556	3464.672		-53.48803	
30.65967	3461.689		-53.45492	
30.71378	3458.736		-53.41948	
30.76789	3455.825		-53.38191	
30.82199	3452.963		-53.34244	
30.8761	3450.146		-53.30131	
30.93021	3447.355		-53.25875	
30.98431	3444.569		-53.21502	
31.03842	3441.777		-53.1704	
31.09253	3438.978		-53.12523	
31.14664	3436.173		-53.07985	
31.20074	3433.365		-53.03465	
31.25485	3430.559		-52.99002	
31.30896	3427.756		-52.94632	
31.36307	3424.958		-52.90392	
31.41717	3422.171		-52.86314	
31.47128	3419.404		-52.82421	
31.52539	3416.664		-52.78734	
31.5795	3413.945		-52.75267	
31.6336	3411.237		-52.72031	
31.68771	3408.523		-52.69036	
31.74182	3405.79		-52.66291	
31.79593	3403.029		-52.63797	
31.85003	3400.235		-52.61551	
31.90414	3397.41		-52.59548	
31.95825	3394.564		-52.57777	
32.01236	3391.708		-52.56223	
32.06646	3388.852		-52.54872	
32.12057	3385.998		-52.53703	
32.17468	3383.141		-52.52697	
32.22879	3380.276		-52.51834	
32.28289	3377.399		-52.51095	
32.337	3374.515		-52.50465	
32.39111	3371.637		-52.49932	
32.44521	3368.78		-52.4949	
32.49932	3365.944		-52.49142	
32.55343	3363.125		-52.48888	
32.60754	3360.319		-52.48734	
32.66164	3357.521		-52.48676	
32.71575	3354.729		-52.48708	
32.76986	3351.942		-52.48812	
32.82397	3349.162		-52.48966	
32.87807	3346.384		-52.49147	
32.93218	3343.601		-52.49327	
32.98629	3340.801		-52.49477	
33.0404	3337.975		-52.49568	
33.09451	3335.115		-52.49569	
33.14861	3332.223		-52.4945	
33.20272	3329.309		-52.49186	
33.25682	3326.385		-52.48754	
33.31093	3323.459		-52.48136	
33.36504	3320.537		-52.47319	
33.41915	3317.618		-52.46294	
33.47326	3314.701		-52.45057	
33.52736	3311.789		-52.43605	
33.58147	3308.884		-52.4194	
33.63558	3305.99		-52.40068	
33.68969	3303.105		-52.38	
33.74379	3300.224		-52.35747	
33.7979	3297.337		-52.33318	
33.85201	3294.434		-52.30719	
33.90612	3291.505		-52.27952	
33.96022	3288.556		-52.25019	
34.01433	3285.604		-52.21917	
34.06844	3282.671		-52.18644	
34.12254	3279.774		-52.15194	
34.17665	3276.921		-52.11568	
34.23076	3274.103		-52.07762	
34.28487	3271.305		-52.03779	
34.33897	3268.517		-51.99625	
34.39308	3265.738		-51.9531	
34.44719	3262.971		-51.90852	
34.5013	3260.219		-51.86271	
34.5554	3257.477		-51.81596	
34.60951	3254.733		-51.76859	
34.66362	3251.978		-51.72091	
34.71773	3249.204		-51.67327	
34.77183	3246.414		-51.62598	
34.82594	3243.616		-51.57932	
34.88005	3240.82		-51.53357	
34.93415	3238.038		-51.48898	
34.98826	3235.273		-51.44574	
35.04237	3232.516		-51.40403	
35.09648	3229.755		-51.36399	
35.15059	3226.982		-51.32571	
35.20469	3224.197		-51.28924	
35.2588	3221.408		-51.25462	
35.31291	3218.625		-51.22185	
35.36702	3215.855		-51.1909	
35.42112	3213.097		-51.1617	
35.47523	3210.348		-51.13418	
35.52934	3207.604		-51.10822	
35.58344	3204.866		-51.08374	
35.63755	3202.141		-51.0606	
35.69166	3199.433		-51.03872	
35.74577	3196.75		-51.018	
35.79987	3194.09		-50.99835	
35.85398	3191.446		-50.97966	
35.90809	3188.797		-50.96181	
35.9622	3186.131		-50.94465	
36.0163	3183.443		-50.92796	
36.07041	3180.739		-50.9115	
36.12452	3178.028		-50.89499	
36.17863	3175.321		-50.8781	
36.23273	3172.617		-50.86048	
36.28684	3169.915		-50.84177	
36.34095	3167.212		-50.82162	
36.39505	3164.507		-50.7997	
36.44916	3161.798		-50.77575	
36.50327	3159.084		-50.74958	
36.55738	3156.368		-50.72112	
36.61148	3153.651		-50.6904	
36.66559	3150.928		-50.65753	
36.7197	3148.199		-50.62267	
36.77381	3145.458		-50.58601	
36.82792	3142.7		-50.54778	
36.88202	3139.92		-50.50822	
36.93613	3137.122		-50.46765	
36.99024	3134.308		-50.42638	
37.04435	3131.48		-50.38481	
37.09845	3128.634		-50.34328	
37.15256	3125.769		-50.30211	
37.20667	3122.887		-50.2616	
37.26077	3119.999		-50.22194	
37.31488	3117.118		-50.18327	
37.36899	3114.254		-50.14566	
37.4231	3111.418		-50.10909	
37.4772	3108.619		-50.07348	
37.53131	3105.85		-50.03871	
37.58542	3103.098		-50.00457	
37.63953	3100.345		-49.97083	
37.69363	3097.579		-49.93725	
37.74774	3094.796		-49.90362	
37.80185	3092.003		-49.86975	
37.85596	3089.209		-49.83548	
37.91006	3086.422		-49.80069	
37.96417	3083.649		-49.76529	
38.01828	3080.892		-49.72921	
38.07238	3078.151		-49.69239	
38.12649	3075.433		-49.65483	
38.1806	3072.747		-49.61651	
38.23471	3070.098		-49.57743	
38.28881	3067.489		-49.53757	
38.34292	3064.922		-49.49695	
38.39703	3062.398		-49.45555	
38.45114	3059.913		-49.41339	
38.50525	3057.456		-49.37057	
38.55935	3055.016		-49.32721	
38.61346	3052.577		-49.28353	
38.66757	3050.131		-49.23976	
38.72168	3047.672		-49.19619	
38.77578	3045.197		-49.15316	
38.82989	3042.698		-49.11102	
38.884	3040.173		-49.07017	
38.9381	3037.62		-49.03109	
38.99221	3035.044		-48.99425	
39.04632	3032.448		-48.96016	
39.10043	3029.831		-48.92928	
39.15453	3027.19		-48.90202	
39.20864	3024.522		-48.87874	
39.26275	3021.826		-48.85967	
39.31686	3019.104		-48.84496	
39.37096	3016.361		-48.83464	
39.42507	3013.61		-48.82862	
39.47918	3010.864		-48.82673	
39.53329	3008.13		-48.82868	
39.58739	3005.409		-48.83414	
39.6415	3002.703		-48.84268	
39.69561	3000.015		-48.85382	
39.74971	2997.339		-48.86705	
39.80382	2994.67		-48.88183	
39.85793	2992.007		-48.89762	
39.91204	2989.356		-48.91393	
39.96614	2986.722		-48.93027	
40.02025	2984.104		-48.94617	
40.07436	2981.501		-48.96122	
40.12847	2978.915		-48.97498	
40.18258	2976.349		-48.98705	
40.23668	2973.802		-48.99702	
40.29079	2971.265		-49.00455	
40.34489	2968.732		-49.00931	
40.399	2966.191		-49.01102	
40.45311	2963.632		-49.00945	
40.50722	2961.046		-49.00443	
40.56133	2958.432		-48.99583	
40.61543	2955.793		-48.98361	
40.66954	2953.129		-48.96776	
40.72365	2950.439		-48.94839	
40.77776	2947.729		-48.92565	
40.83186	2945.006		-48.89978	
40.88597	2942.274		-48.87111	
40.94008	2939.536		-48.84001	
40.99419	2936.793		-48.80692	
41.04829	2934.044		-48.77233	
41.1024	2931.283		-48.73676	
41.15651	2928.505		-48.7007	
41.21061	2925.707		-48.66462	
41.26472	2922.889		-48.6289	
41.31883	2920.055		-48.59387	
41.37294	2917.215		-48.5598	
41.42704	2914.383		-48.52691	
41.48115	2911.569		-48.49535	
41.53526	2908.773		-48.46527	
41.58937	2905.998		-48.43675	
41.64347	2903.254		-48.4098	
41.69758	2900.555		-48.38438	
41.75169	2897.908		-48.36039	
41.8058	2895.318		-48.33767	
41.85991	2892.785		-48.31607	
41.91401	2890.298		-48.29536	
41.96812	2887.841		-48.27534	
42.02222	2885.392		-48.25576	
42.07633	2882.93		-48.23635	
42.13044	2880.44		-48.21682	
42.18455	2877.918		-48.19687	
42.23866	2875.372		-48.17623	
42.29276	2872.825		-48.15463	
42.34687	2870.294		-48.13182	
42.40098	2867.791		-48.10757	
42.45509	2865.319		-48.08166	
42.50919	2862.872		-48.0539	
42.5633	2860.449		-48.02415	
42.61741	2858.045		-47.99229	
42.67152	2855.647		-47.95829	
42.72562	2853.244		-47.92216	
42.77973	2850.828		-47.88396	
42.83384	2848.392		-47.84382	
42.88794	2845.927		-47.80188	
42.94205	2843.426		-47.7583	
42.99616	2840.884		-47.7133	
43.05027	2838.302		-47.66709	
43.10437	2835.683		-47.61991	
43.15848	2833.035		-47.57204	
43.21259	2830.362		-47.52377	
43.2667	2827.674		-47.47541	
43.3208	2824.983		-47.42725	
43.37491	2822.299		-47.3796	
43.42902	2819.631		-47.33273	
43.48313	2816.988		-47.28689	
43.53723	2814.37		-47.24228	
43.59134	2811.768		-47.19904	
43.64545	2809.168		-47.15727	
43.69955	2806.563		-47.11702	
43.75366	2803.949		-47.07831	
43.80777	2801.323		-47.04113	
43.86188	2798.688		-47.00546	
43.91599	2796.046		-46.97124	
43.97009	2793.403		-46.93842	
44.0242	2790.762		-46.90691	
44.07831	2788.121		-46.87662	
44.13242	2785.475		-46.84743	
44.18652	2782.82		-46.81924	
44.24063	2780.161		-46.79192	
44.29474	2777.507		-46.76537	
44.34884	2774.87		-46.73946	
44.40295	2772.26		-46.71405	
44.45706	2769.681		-46.68901	
44.51117	2767.135		-46.66415	
44.56527	2764.615		-46.63928	
44.61938	2762.112		-46.61417	
44.67349	2759.615		-46.58858	
44.7276	2757.117		-46.56229	
44.7817	2754.617		-46.53506	
44.83581	2752.117		-46.50668	
44.88992	2749.625		-46.47695	
44.94403	2747.152		-46.44567	
44.99813	2744.702		-46.41264	
45.05224	2742.278		-46.37773	
45.10635	2739.878		-46.34084	
45.16045	2737.496		-46.30196	
45.21456	2735.125		-46.26115	
45.26867	2732.766		-46.21856	
45.32278	2730.414		-46.17441	
45.37688	2728.068		-46.12898	
45.43099	2725.736		-46.08259	
45.4851	2723.417		-46.03557	
45.53921	2721.106		-45.98825	
45.59332	2718.786		-45.94098	
45.64742	2716.446		-45.89412	
45.70153	2714.077		-45.84802	
45.75564	2711.674		-45.80304	
45.80975	2709.242		-45.75952	
45.86385	2706.785		-45.71783	
45.91796	2704.314		-45.67828	
45.97206	2701.829		-45.64117	
46.02617	2699.336		-45.60672	
46.08028	2696.84		-45.5751	
46.13439	2694.338		-45.54645	
46.1885	2691.824		-45.52082	
46.2426	2689.292		-45.49825	
46.29671	2686.736		-45.47872	
46.35082	2684.157		-45.4622	
46.40493	2681.558		-45.44859	
46.45903	2678.95		-45.43768	
46.51314	2676.345		-45.4292	
46.56725	2673.748		-45.4228	
46.62136	2671.167		-45.41803	
46.67546	2668.609		-45.4144	
46.72957	2666.076		-45.41138	
46.78368	2663.561		-45.40845	
46.83778	2661.053		-45.4051	
46.89189	2658.55		-45.40081	
46.946	2656.047		-45.3951	
47.00011	2653.547		-45.38747	
47.05421	2651.058		-45.37745	
47.10832	2648.589		-45.36463	
47.16243	2646.146		-45.34862	
47.21654	2643.732		-45.32914	
47.27065	2641.344		-45.30598	
47.32475	2638.972		-45.27905	
47.37886	2636.609		-45.24834	
47.43297	2634.251		-45.21394	
47.48708	2631.9		-45.17603	
47.54118	2629.563		-45.1349	
47.59529	2627.244		-45.09086	
47.64939	2624.938		-45.04434	
47.7035	2622.635		-44.99576	
47.75761	2620.317		-44.94564	
47.81172	2617.968		-44.89451	
47.86583	2615.58		-44.84296	
47.91993	2613.147		-44.7916	
47.97404	2610.67		-44.74103	
48.02815	2608.156		-44.69186	
48.08226	2605.613		-44.64466	
48.13636	2603.048		-44.59995	
48.19047	2600.473		-44.55816	
48.24458	2597.899		-44.51967	
48.29869	2595.328		-44.48474	
48.35279	2592.76		-44.45355	
48.4069	2590.2		-44.42618	
48.46101	2587.655		-44.40261	
48.51511	2585.126		-44.38274	
48.56922	2582.616		-44.36635	
48.62333	2580.13		-44.35316	
48.67744	2577.672		-44.34282	
48.73154	2575.247		-44.33493	
48.78565	2572.865		-44.32902	
48.83976	2570.528		-44.32462	
48.89387	2568.232		-44.32122	
48.94798	2565.97		-44.31837	
49.00208	2563.734		-44.3156	
49.05619	2561.518		-44.3125	
49.1103	2559.319		-44.30866	
49.1644	2557.133		-44.30374	
49.21851	2554.96		-44.29743	
49.27262	2552.799		-44.28944	
49.32673	2550.645		-44.27955	
49.38083	2548.489		-44.26754	
49.43494	2546.323		-44.25325	
49.48905	2544.134		-44.23655	
49.54316	2541.911		-44.21736	
49.59726	2539.65		-44.19562	
49.65137	2537.354		-44.17134	
49.70548	2535.023		-44.14457	
49.75959	2532.655		-44.11542	
49.81369	2530.248		-44.08405	
49.8678	2527.802		-44.0507	
49.92191	2525.32		-44.01564	
49.97601	2522.806		-43.97916	
50.03012	2520.267		-43.94157	
50.08423	2517.707		-43.90322	
50.13834	2515.134		-43.86441	
50.19244	2512.561		-43.82546	
50.24655	2510		-43.78663	
50.30066	2507.455		-43.74816	
50.35477	2504.925		-43.71021	
50.40887	2502.405		-43.67291	
50.46298	2499.889		-43.63633	
50.51709	2497.375		-43.60046	
50.5712	2494.866		-43.56528	
50.62531	2492.357		-43.53073	
50.67941	2489.848		-43.49666	
50.73352	2487.35		-43.46293	
50.78762	2484.871		-43.42933	
50.84173	2482.419		-43.39568	
50.89584	2480.001		-43.36176	
50.94995	2477.621		-43.32742	
51.00406	2475.279		-43.29256	
51.05816	2472.971		-43.25712	
51.11227	2470.694		-43.22111	
51.16638	2468.441		-43.18454	
51.22049	2466.204		-43.14745	
51.27459	2463.976		-43.10986	
51.3287	2461.75		-43.07177	
51.38281	2459.521		-43.03316	
51.43692	2457.289		-42.994	
51.49102	2455.043		-42.95427	
51.54513	2452.775		-42.91392	
51.59924	2450.485		-42.87291	
51.65334	2448.174		-42.83121	
51.70745	2445.845		-42.78878	
51.76156	2443.509		-42.74555	
51.81567	2441.177		-42.70148	
51.86977	2438.86		-42.65653	
51.92388	2436.563		-42.61063	
51.97799	2434.286		-42.56377	
52.0321	2432.031		-42.51598	
52.0862	2429.793		-42.46732	
52.14031	2427.567		-42.4179	
52.19442	2425.346		-42.36788	
52.24853	2423.125		-42.31744	
52.30264	2420.903		-42.26676	
52.35674	2418.68		-42.21603	
52.41085	2416.456		-42.16543	
52.46495	2414.24		-42.11518	
52.51906	2412.046		-42.06549	
52.57317	2409.875		-42.01661	
52.62728	2407.729		-41.9688	
52.68139	2405.603		-41.92232	
52.73549	2403.491		-41.87745	
52.7896	2401.38		-41.83446	
52.84371	2399.262		-41.79358	
52.89782	2397.132		-41.75503	
52.95192	2394.987		-41.71901	
53.00603	2392.821		-41.68571	
53.06014	2390.625		-41.65532	
53.11424	2388.387		-41.62799	
53.16835	2386.095		-41.60386	
53.22246	2383.745		-41.583	
53.27657	2381.339		-41.56543	
53.33067	2378.889		-41.55114	
53.38478	2376.407		-41.54008	
53.43889	2373.91		-41.53214	
53.493	2371.406		-41.52714	
53.5471	2368.904		-41.52481	
53.60121	2366.409		-41.52477	
53.65532	2363.929		-41.52655	
53.70943	2361.472		-41.52956	
53.76353	2359.048		-41.53313	
53.81764	2356.667		-41.5365	
53.87175	2354.332		-41.53888	
53.92585	2352.035		-41.53945	
53.97996	2349.769		-41.53738	
54.03407	2347.532		-41.53188	
54.08818	2345.326		-41.52219	
54.14228	2343.155		-41.5076	
54.19639	2341.029		-41.48752	
54.2505	2338.95		-41.46145	
54.30461	2336.915		-41.429	
54.35872	2334.91		-41.38992	
54.41282	2332.921		-41.3441	
54.46693	2330.937		-41.29156	
54.52104	2328.948		-41.23249	
54.57515	2326.943		-41.16719	
54.62925	2324.913		-41.0961	
54.68336	2322.854		-41.01977	
54.73746	2320.76		-40.93884	
54.79157	2318.627		-40.85405	
54.84568	2316.456		-40.76619	
54.89979	2314.248		-40.67611	
54.9539	2312.007		-40.58475	
55.008	2309.738		-40.49308	
55.06211	2307.443		-40.40212	
55.11622	2305.121		-40.31287	
55.17033	2302.766		-40.22629	
55.22443	2300.379		-40.14329	
55.27854	2297.965		-40.06472	
55.33265	2295.529		-39.99138	
55.38676	2293.084		-39.92396	
55.44086	2290.643		-39.86306	
55.49497	2288.214		-39.80914	
55.54908	2285.797		-39.76252	
55.60318	2283.392		-39.72335	
55.65729	2280.999		-39.6916	
55.7114	2278.625		-39.66705	
55.76551	2276.283		-39.64932	
55.81961	2273.986		-39.63784	
55.87372	2271.749		-39.63194	
55.92783	2269.578		-39.6308	
55.98194	2267.476		-39.63352	
56.03605	2265.44		-39.6391	
56.09015	2263.467		-39.64648	
56.14426	2261.551		-39.65461	
56.19837	2259.682		-39.66247	
56.25248	2257.854		-39.66908	
