T[Â°C]	330nm [counts / mm]	S.D.	First derivative	S.D. of first derivative
19.99993	8070.734		-125.062	
20.05392	8063.77		-124.6603	
20.1079	8056.825		-124.2606	
20.16189	8049.9		-123.863	
20.21587	8042.994		-123.4676	
20.26986	8036.107		-123.0745	
20.32385	8029.24		-122.6839	
20.37783	8022.39		-122.2957	
20.43182	8015.556		-121.9101	
20.48581	8008.733		-121.5272	
20.53979	8001.918		-121.1471	
20.59378	7995.107		-120.7699	
20.64777	7988.296		-120.3957	
20.70175	7981.478		-120.0246	
20.75574	7974.646		-119.6566	
20.80973	7967.798		-119.2919	
20.86371	7960.931		-118.9304	
20.9177	7954.061		-118.5722	
20.97169	7947.254		-118.2173	
21.02567	7940.621		-117.8658	
21.07966	7934.039		-117.5176	
21.13365	7927.518		-117.1728	
21.18763	7921.072		-116.8312	
21.24162	7914.715		-116.4929	
21.29561	7908.456		-116.1578	
21.34959	7902.294		-115.8258	
21.40358	7896.214		-115.4968	
21.45757	7890.201		-115.1708	
21.51155	7884.237		-114.8475	
21.56554	7878.3		-114.527	
21.61953	7872.364		-114.2091	
21.67351	7866.426		-113.8935	
21.7275	7860.493		-113.5803	
21.78149	7854.572		-113.2691	
21.83547	7848.672		-112.9598	
21.88946	7842.799		-112.6521	
21.94345	7836.951		-112.3457	
21.99743	7831.125		-112.0404	
22.05142	7825.322		-111.7356	
22.10541	7819.556		-111.431	
22.15939	7813.847		-111.1261	
22.21338	7808.206		-110.8203	
22.26736	7802.624		-110.5134	
22.32135	7797.084		-110.2049	
22.37534	7791.565		-109.8951	
22.42933	7786.061		-109.5847	
22.48331	7780.573		-109.2757	
22.5373	7775.104		-108.9716	
22.59129	7769.647		-108.6771	
22.64527	7764.2		-108.5532	
22.69926	7758.749		-108.4414	
22.75324	7753.283		-108.3418	
22.80723	7747.792		-108.2539	
22.86122	7742.275		-108.1778	
22.91521	7736.73		-108.1131	
22.96919	7731.164		-108.0596	
23.02318	7725.58		-108.0168	
23.07716	7719.982		-107.9843	
23.13115	7714.373		-107.9613	
23.18514	7708.756		-107.9472	
23.23912	7703.135		-107.9411	
23.29311	7697.51		-107.9422	
23.3471	7691.876		-107.9496	
23.40108	7686.225		-107.9623	
23.45507	7680.549		-107.9796	
23.50906	7674.845		-108.0004	
23.56304	7669.102		-108.024	
23.61703	7663.298		-108.0493	
23.67102	7657.421		-108.0757	
23.725	7651.466		-108.1024	
23.77899	7645.434		-108.1291	
23.83298	7639.327		-108.1551	
23.88696	7633.15		-108.1802	
23.94095	7626.913		-108.204	
23.99494	7620.625		-108.2261	
24.04892	7614.303		-108.2463	
24.10291	7607.96		-108.2642	
24.1569	7601.621		-108.2794	
24.21088	7595.308		-108.2914	
24.26487	7589.041		-108.2997	
24.31886	7582.822		-108.3039	
24.37284	7576.656		-108.3033	
24.42683	7570.551		-108.2973	
24.48082	7564.51		-108.2856	
24.5348	7558.528		-108.2674	
24.58879	7552.587		-108.2424	
24.64278	7546.661		-108.2101	
24.69676	7540.732		-108.1705	
24.75075	7534.791		-108.1234	
24.80474	7528.829		-108.0689	
24.85872	7522.848		-108.0074	
24.91271	7516.854		-107.9394	
24.9667	7510.859		-107.8654	
25.02068	7504.876		-107.7864	
25.07467	7498.924		-107.703	
25.12866	7493.026		-107.616	
25.18264	7487.211		-107.5259	
25.23663	7481.487		-107.4336	
25.29062	7475.854		-107.3395	
25.3446	7470.286		-107.2441	
25.39859	7464.747		-107.1478	
25.45258	7459.198		-107.0508	
25.50656	7453.608		-106.9534	
25.56055	7447.97		-106.8557	
25.61454	7442.29		-106.7577	
25.66852	7436.573		-106.6593	
25.72251	7430.835		-106.5607	
25.77649	7425.083		-106.4619	
25.83048	7419.32		-106.3631	
25.88447	7413.561		-106.2645	
25.93846	7407.823		-106.1664	
25.99244	7402.13		-106.0692	
26.04643	7396.5		-105.9732	
26.10041	7390.948		-105.8786	
26.1544	7385.486		-105.7856	
26.20839	7380.104		-105.6945	
26.26237	7374.77		-105.6052	
26.31636	7369.44		-105.5178	
26.37035	7364.082		-105.4322	
26.42434	7358.677		-105.3483	
26.47832	7353.227		-105.2658	
26.53231	7347.728		-105.1845	
26.58629	7342.184		-105.104	
26.64028	7336.614		-105.0239	
26.69427	7331.046		-104.944	
26.74825	7325.497		-104.8639	
26.80224	7319.975		-104.7837	
26.85623	7314.471		-104.7032	
26.91021	7308.972		-104.6226	
26.9642	7303.455		-104.542	
27.01819	7297.893		-104.4616	
27.07217	7292.268		-104.3814	
27.12616	7286.57		-104.3016	
27.18015	7280.794		-104.222	
27.23413	7274.949		-104.1424	
27.28812	7269.046		-104.0626	
27.34211	7263.097		-103.9822	
27.39609	7257.102		-103.9008	
27.45008	7251.054		-103.8181	
27.50407	7244.961		-103.7336	
27.55805	7238.842		-103.6469	
27.61204	7232.725		-103.5575	
27.66603	7226.652		-103.4649	
27.72001	7220.663		-103.3689	
27.774	7214.773		-103.2689	
27.82799	7208.984		-103.1647	
27.88197	7203.283		-103.0558	
27.93596	7197.654		-102.9423	
27.98995	7192.067		-102.824	
28.04393	7186.499		-102.701	
28.09792	7180.941		-102.5734	
28.15191	7175.398		-102.4417	
28.20589	7169.877		-102.3059	
28.25988	7164.386		-102.1666	
28.31387	7158.931		-102.024	
28.36785	7153.517		-101.8783	
28.42184	7148.142		-101.7299	
28.47583	7142.789		-101.579	
28.52981	7137.445		-101.4261	
28.5838	7132.109		-101.2713	
28.63778	7126.782		-101.1151	
28.69177	7121.466		-100.9578	
28.74576	7116.165		-100.7999	
28.79975	7110.872		-100.642	
28.85373	7105.577		-100.4848	
28.90772	7100.262		-100.3291	
28.96171	7094.908		-100.1755	
29.01569	7089.507		-100.0249	
29.06968	7084.068		-99.87818	
29.12366	7078.608		-99.73598	
29.17765	7073.147		-99.59903	
29.23164	7067.7		-99.46799	
29.28563	7062.27		-99.34345	
29.33961	7056.853		-99.22596	
29.3936	7051.45		-99.11591	
29.44758	7046.07		-99.01369	
29.50157	7040.72		-98.91956	
29.55556	7035.4		-98.83376	
29.60954	7030.125		-98.75644	
29.66353	7024.914		-98.68765	
29.71752	7019.787		-98.62737	
29.77151	7014.745		-98.57548	
29.82549	7009.781		-98.53178	
29.87948	7004.877		-98.49605	
29.93346	7000.004		-98.46796	
29.98745	6995.131		-98.44721	
30.04144	6990.23		-98.43352	
30.09542	6985.283		-98.42661	
30.14941	6980.281		-98.42624	
30.2034	6975.226		-98.43221	
30.25738	6970.131		-98.44428	
30.31137	6965.014		-98.46214	
30.36536	6959.875		-98.48538	
30.41934	6954.703		-98.51357	
30.47333	6949.478		-98.54613	
30.52732	6944.187		-98.58245	
30.5813	6938.817		-98.62192	
30.63529	6933.363		-98.66388	
30.68928	6927.835		-98.70767	
30.74326	6922.258		-98.75259	
30.79725	6916.661		-98.79788	
30.85124	6911.073		-98.84271	
30.90522	6905.513		-98.88625	
30.95921	6899.975		-98.92761	
31.0132	6894.454		-98.96597	
31.06718	6888.946		-99.00054	
31.12117	6883.461		-99.03065	
31.17516	6878.005		-99.05578	
31.22914	6872.583		-99.07558	
31.28313	6867.191		-99.0898	
31.33712	6861.829		-99.09826	
31.3911	6856.488		-99.10084	
31.44509	6851.162		-99.09737	
31.49908	6845.828		-99.08771	
31.55306	6840.479		-99.0717	
31.60705	6835.112		-99.04925	
31.66104	6829.738		-99.02026	
31.71502	6824.363		-98.98474	
31.76901	6818.993		-98.94266	
31.823	6813.629		-98.89401	
31.87698	6808.268		-98.83884	
31.93097	6802.913		-98.77722	
31.98496	6797.557		-98.70934	
32.03894	6792.183		-98.63548	
32.09293	6786.766		-98.55608	
32.14692	6781.278		-98.47174	
32.2009	6775.71		-98.38322	
32.25489	6770.071		-98.29141	
32.30888	6764.371		-98.1973	
32.36286	6758.63		-98.10186	
32.41685	6752.88		-98.00607	
32.47084	6747.152		-97.91086	
32.52482	6741.476		-97.81711	
32.57881	6735.876		-97.72561	
32.6328	6730.37		-97.63708	
32.68678	6724.959		-97.55216	
32.74077	6719.63		-97.47135	
32.79475	6714.36		-97.39503	
32.84874	6709.138		-97.32338	
32.90273	6703.954		-97.25646	
32.95671	6698.803		-97.19421	
33.0107	6693.694		-97.13651	
33.06469	6688.635		-97.08318	
33.11868	6683.619		-97.03413	
33.17266	6678.634		-96.98926	
33.22665	6673.672		-96.94857	
33.28064	6668.729		-96.91218	
33.33462	6663.803		-96.88024	
33.38861	6658.902		-96.85301	
33.4426	6654.027		-96.83075	
33.49658	6649.175		-96.81373	
33.55057	6644.342		-96.80227	
33.60455	6639.528		-96.79671	
33.65854	6634.726		-96.79739	
33.71253	6629.92		-96.8046	
33.76651	6625.083		-96.81852	
33.8205	6620.185		-96.83926	
33.87449	6615.211		-96.86681	
33.92847	6610.162		-96.90109	
33.98246	6605.045		-96.94196	
34.03645	6599.888		-96.98925	
34.09044	6594.722		-97.04288	
34.14442	6589.57		-97.10278	
34.19841	6584.442		-97.16896	
34.2524	6579.329		-97.24145	
34.30638	6574.216		-97.32018	
34.36037	6569.092		-97.40506	
34.41435	6563.948		-97.4959	
34.46834	6558.766		-97.5924	
34.52233	6553.539		-97.69413	
34.57631	6548.258		-97.80053	
34.6303	6542.922		-97.91087	
34.68429	6537.533		-98.02429	
34.73827	6532.091		-98.13979	
34.79226	6526.601		-98.25625	
34.84624	6521.066		-98.37232	
34.90023	6515.493		-98.48658	
34.95422	6509.898		-98.59747	
35.00821	6504.311		-98.70343	
35.06219	6498.747		-98.80292	
35.11618	6493.228		-98.89438	
35.17017	6487.77		-98.97634	
35.22415	6482.38		-99.04742	
35.27814	6477.048		-99.1063	
35.33213	6471.749		-99.15184	
35.38611	6466.456		-99.18304	
35.4401	6461.133		-99.19916	
35.49409	6455.754		-99.19964	
35.54807	6450.297		-99.1842	
35.60206	6444.758		-99.15279	
35.65604	6439.159		-99.10547	
35.71003	6433.535		-99.04255	
35.76402	6427.913		-98.96447	
35.818	6422.31		-98.87179	
35.87199	6416.73		-98.76518	
35.92598	6411.167		-98.64544	
35.97997	6405.618		-98.5134	
36.03395	6400.077		-98.36995	
36.08794	6394.541		-98.21599	
36.14193	6389.002		-98.05251	
36.19591	6383.454		-97.88049	
36.2499	6377.89		-97.70089	
36.30389	6372.307		-97.51466	
36.35787	6366.703		-97.3228	
36.41186	6361.077		-97.1263	
36.46584	6355.437		-96.9262	
36.51983	6349.801		-96.72356	
36.57382	6344.19		-96.5195	
36.6278	6338.624		-96.31515	
36.68179	6333.107		-96.11156	
36.73578	6327.638		-95.90977	
36.78976	6322.218		-95.71065	
36.84375	6316.861		-95.51491	
36.89774	6311.583		-95.32314	
36.95173	6306.402		-95.13583	
37.00571	6301.32		-94.9533	
37.0597	6296.335		-94.77574	
37.11369	6291.443		-94.60323	
37.16767	6286.63		-94.43578	
37.22166	6281.879		-94.27326	
37.27564	6277.172		-94.11544	
37.32963	6272.496		-93.96203	
37.38362	6267.854		-93.81275	
37.4376	6263.258		-93.66735	
37.49159	6258.709		-93.52563	
37.54558	6254.19		-93.3875	
37.59956	6249.673		-93.25293	
37.65355	6245.134		-93.12195	
37.70754	6240.567		-92.9947	
37.76152	6235.965		-92.87141	
37.81551	6231.329		-92.75234	
37.8695	6226.667		-92.63779	
37.92348	6222.001		-92.52801	
37.97747	6217.345		-92.42326	
38.03146	6212.704		-92.32372	
38.08544	6208.066		-92.22948	
38.13943	6203.41		-92.14046	
38.19342	6198.718		-92.05652	
38.2474	6193.971		-91.97733	
38.30139	6189.154		-91.90246	
38.35538	6184.26		-91.83138	
38.40936	6179.289		-91.7635	
38.46335	6174.251		-91.69823	
38.51734	6169.162		-91.63503	
38.57132	6164.047		-91.57339	
38.62531	6158.938		-91.51294	
38.67929	6153.856		-91.45327	
38.73328	6148.809		-91.39404	
38.78727	6143.797		-91.33489	
38.84126	6138.802		-91.27551	
38.89524	6133.797		-91.21559	
38.94923	6128.762		-91.15484	
39.00322	6123.683		-91.09297	
39.0572	6118.559		-91.02967	
39.11119	6113.386		-90.96454	
39.16518	6108.159		-90.89713	
39.21916	6102.875		-90.82686	
39.27315	6097.537		-90.75308	
39.32714	6092.166		-90.67513	
39.38112	6086.787		-90.5924	
39.43511	6081.43		-90.50433	
39.48909	6076.128		-90.41053	
39.54308	6070.903		-90.31071	
39.59707	6065.762		-90.20483	
39.65105	6060.696		-90.09293	
39.70504	6055.688		-89.97532	
39.75903	6050.712		-89.85238	
39.81301	6045.753		-89.72467	
39.867	6040.8		-89.59282	
39.92099	6035.839		-89.45752	
39.97498	6030.866		-89.31956	
40.02896	6025.879		-89.17976	
40.08295	6020.884		-89.03891	
40.13694	6015.899		-88.89777	
40.19092	6010.954		-88.75707	
40.24491	6006.062		-88.61754	
40.29889	6001.225		-88.4798	
40.35288	5996.442		-88.34446	
40.40687	5991.725		-88.21205	
40.46085	5987.073		-88.08311	
40.51484	5982.482		-87.95808	
40.56883	5977.936		-87.83741	
40.62281	5973.418		-87.7215	
40.6768	5968.921		-87.61068	
40.73079	5964.448		-87.50528	
40.78477	5959.999		-87.40562	
40.83876	5955.561		-87.31206	
40.89275	5951.14		-87.22498	
40.94674	5946.743		-87.14481	
41.00072	5942.379		-87.07205	
41.05471	5938.049		-87.00717	
41.10869	5933.75		-86.95058	
41.16268	5929.471		-86.9026	
41.21667	5925.202		-86.86344	
41.27065	5920.943		-86.83314	
41.32464	5916.697		-86.81161	
41.37863	5912.457		-86.79863	
41.43261	5908.208		-86.79389	
41.4866	5903.929		-86.79701	
41.54059	5899.606		-86.80758	
41.59457	5895.228		-86.82511	
41.64856	5890.793		-86.8491	
41.70255	5886.303		-86.879	
41.75653	5881.768		-86.91425	
41.81052	5877.2		-86.95429	
41.86451	5872.606		-86.99858	
41.91849	5867.985		-87.04659	
41.97248	5863.337		-87.09779	
42.02647	5858.655		-87.15167	
42.08045	5853.924		-87.2077	
42.13444	5849.134		-87.26524	
42.18843	5844.285		-87.32362	
42.24241	5839.37		-87.38213	
42.2964	5834.388		-87.44002	
42.35039	5829.35		-87.49651	
42.40437	5824.282		-87.55084	
42.45836	5819.213		-87.60221	
42.51234	5814.164		-87.6498	
42.56633	5809.138		-87.6928	
42.62032	5804.136		-87.73039	
42.6743	5799.163		-87.76181	
42.72829	5794.225		-87.78636	
42.78228	5789.316		-87.80345	
42.83627	5784.431		-87.81261	
42.89025	5779.568		-87.81351	
42.94424	5774.71		-87.806	
42.99823	5769.84		-87.79008	
43.05221	5764.94		-87.76585	
43.1062	5759.99		-87.73352	
43.16019	5754.971		-87.69342	
43.21417	5749.877		-87.64596	
43.26816	5744.729		-87.59155	
43.32214	5739.562		-87.53061	
43.37613	5734.41		-87.4635	
43.43012	5729.303		-87.39055	
43.4841	5724.264		-87.31202	
43.53809	5719.299		-87.22813	
43.59208	5714.405		-87.13902	
43.64606	5709.579		-87.04488	
43.70005	5704.812		-86.94585	
43.75404	5700.087		-86.84211	
43.80803	5695.392		-86.73393	
43.86201	5690.714		-86.62157	
43.916	5686.053		-86.50533	
43.96999	5681.415		-86.3855	
44.02397	5676.796		-86.26244	
44.07796	5672.193		-86.13651	
44.13194	5667.605		-86.00806	
44.18593	5663.034		-85.8776	
44.23992	5658.48		-85.74572	
44.2939	5653.942		-85.61302	
44.34789	5649.428		-85.48016	
44.40188	5644.959		-85.34776	
44.45586	5640.557		-85.21638	
44.50985	5636.227		-85.08656	
44.56384	5631.957		-84.95872	
44.61782	5627.737		-84.8333	
44.67181	5623.554		-84.71062	
44.7258	5619.392		-84.59106	
44.77979	5615.237		-84.47501	
44.83377	5611.075		-84.36289	
44.88776	5606.89		-84.25522	
44.94174	5602.675		-84.15257	
44.99573	5598.428		-84.05554	
45.04972	5594.152		-83.96478	
45.1037	5589.85		-83.8809	
45.15769	5585.522		-83.8045	
45.21168	5581.169		-83.73621	
45.26566	5576.787		-83.67655	
45.31965	5572.368		-83.626	
45.37364	5567.903		-83.58478	
45.42762	5563.384		-83.55296	
45.48161	5558.811		-83.53037	
45.53559	5554.187		-83.51667	
45.58958	5549.523		-83.51131	
45.64357	5544.828		-83.51364	
45.69756	5540.1		-83.52286	
45.75154	5535.336		-83.53808	
45.80553	5530.549		-83.55836	
45.85952	5525.76		-83.5827	
45.9135	5520.998		-83.60999	
45.96749	5516.284		-83.63906	
46.02148	5511.635		-83.66871	
46.07546	5507.052		-83.69772	
46.12945	5502.522		-83.72492	
46.18344	5498.031		-83.74928	
46.23742	5493.559		-83.7698	
46.29141	5489.083		-83.78561	
46.34539	5484.598		-83.79586	
46.39938	5480.11		-83.79974	
46.45337	5475.628		-83.79642	
46.50735	5471.153		-83.78513	
46.56134	5466.689		-83.76507	
46.61533	5462.25		-83.73554	
46.66932	5457.847		-83.69597	
46.7233	5453.474		-83.6459	
46.77729	5449.11		-83.58508	
46.83128	5444.731		-83.5134	
46.88526	5440.323		-83.43102	
46.93925	5435.871		-83.33826	
46.99324	5431.369		-83.23569	
47.04722	5426.804		-83.12405	
47.10121	5422.169		-83.00417	
47.15519	5417.468		-82.87708	
47.20918	5412.707		-82.74387	
47.26317	5407.897		-82.60577	
47.31715	5403.05		-82.464	
47.37114	5398.181		-82.31976	
47.42513	5393.307		-82.17419	
47.47911	5388.438		-82.02836	
47.5331	5383.586		-81.88326	
47.58709	5378.769		-81.73981	
47.64108	5374.004		-81.59875	
47.69506	5369.301		-81.46076	
47.74905	5364.665		-81.32635	
47.80304	5360.091		-81.19592	
47.85702	5355.569		-81.06977	
47.91101	5351.101		-80.9481	
47.96499	5346.693		-80.83109	
48.01898	5342.356		-80.71886	
48.07297	5338.091		-80.61162	
48.12695	5333.891		-80.50953	
48.18094	5329.743		-80.41282	
48.23493	5325.635		-80.3217	
48.28891	5321.558		-80.23645	
48.3429	5317.491		-80.1573	
48.39688	5313.415		-80.08442	
48.45087	5309.324		-80.01791	
48.50486	5305.221		-79.95776	
48.55885	5301.118		-79.90378	
48.61283	5297.03		-79.85569	
48.66682	5292.972		-79.81315	
48.72081	5288.946		-79.77571	
48.77479	5284.947		-79.74293	
48.82878	5280.966		-79.71437	
48.88277	5276.998		-79.68964	
48.93675	5273.043		-79.66843	
48.99074	5269.112		-79.65054	
49.04473	5265.197		-79.63586	
49.09871	5261.291		-79.62433	
49.1527	5257.378		-79.61595	
49.20669	5253.438		-79.61079	
49.26067	5249.442		-79.60889	
49.31466	5245.377		-79.61032	
49.36864	5241.244		-79.61512	
49.42263	5237.053		-79.62335	
49.47662	5232.81		-79.63504	
49.53061	5228.518		-79.65015	
49.58459	5224.187		-79.66854	
49.63858	5219.837		-79.68994	
49.69257	5215.489		-79.71395	
49.74655	5211.152		-79.73999	
49.80054	5206.823		-79.76732	
49.85453	5202.495		-79.79507	
49.90851	5198.162		-79.82231	
49.9625	5193.822		-79.84805	
50.01649	5189.468		-79.87129	
50.07047	5185.088		-79.89109	
50.12446	5180.665		-79.90655	
50.17844	5176.188		-79.91686	
50.23243	5171.665		-79.92136	
50.28642	5167.103		-79.91946	
50.3404	5162.506		-79.91076	
50.39439	5157.88		-79.89492	
50.44838	5153.232		-79.8717	
50.50237	5148.576		-79.84091	
50.55635	5143.927		-79.80237	
50.61034	5139.298		-79.75589	
50.66433	5134.694		-79.70131	
50.71831	5130.113		-79.63846	
50.7723	5125.543		-79.56724	
50.82629	5120.97		-79.48758	
50.88027	5116.374		-79.39951	
50.93426	5111.752		-79.30314	
50.98824	5107.117		-79.19866	
51.04223	5102.486		-79.0864	
51.09622	5097.888		-78.96684	
51.1502	5093.34		-78.84049	
51.20419	5088.855		-78.70802	
51.25818	5084.441		-78.57016	
51.31216	5080.092		-78.42779	
51.36615	5075.8		-78.28187	
51.42014	5071.558		-78.13348	
51.47412	5067.352		-77.98373	
51.52811	5063.162		-77.83379	
51.5821	5058.976		-77.68468	
51.63609	5054.792		-77.53734	
51.69007	5050.614		-77.39259	
51.74406	5046.449		-77.25111	
51.79804	5042.303		-77.11347	
51.85203	5038.183		-76.98011	
51.90602	5034.097		-76.85142	
51.96	5030.058		-76.72775	
52.01399	5026.073		-76.60938	
52.06798	5022.152		-76.49656	
52.12196	5018.288		-76.38957	
52.17595	5014.473		-76.28867	
52.22993	5010.691		-76.19413	
52.28392	5006.931		-76.10628	
52.33791	5003.18		-76.02544	
52.3919	4999.433		-75.95189	
52.44588	4995.67		-75.88589	
52.49987	4991.88		-75.82765	
52.55386	4988.058		-75.77728	
52.60784	4984.212		-75.73485	
52.66183	4980.355		-75.70035	
52.71582	4976.505		-75.67372	
52.7698	4972.678		-75.65487	
52.82379	4968.882		-75.64365	
52.87778	4965.11		-75.63986	
52.93176	4961.366		-75.64318	
52.98575	4957.647		-75.65321	
53.03973	4953.96		-75.66948	
53.09372	4950.292		-75.69147	
53.14771	4946.616		-75.71857	
53.20169	4942.907		-75.75009	
53.25568	4939.137		-75.78532	
53.30967	4935.283		-75.82346	
53.36366	4931.326		-75.86372	
53.41764	4927.252		-75.90538	
53.47163	4923.065		-75.94777	
53.52562	4918.783		-75.99029	
53.5796	4914.421		-76.03235	
53.63359	4909.995		-76.07337	
53.68758	4905.528		-76.11275	
53.74156	4901.043		-76.14983	
53.79555	4896.563		-76.18393	
53.84953	4892.1		-76.21431	
53.90352	4887.662		-76.2402	
53.95751	4883.246		-76.26079	
54.01149	4878.848		-76.27529	
54.06548	4874.463		-76.28297	
54.11947	4870.093		-76.28311	
54.17345	4865.736		-76.27511	
54.22744	4861.38		-76.25842	
54.28143	4857.017		-76.23263	
54.33541	4852.648		-76.19736	
54.3894	4848.28		-76.15237	
54.44339	4843.915		-76.09752	
54.49738	4839.552		-76.03276	
54.55136	4835.193		-75.95822	
54.60535	4830.843		-75.87415	
54.65933	4826.514		-75.78092	
54.71332	4822.219		-75.67912	
54.76731	4817.96		-75.56949	
54.82129	4813.722		-75.45287	
54.87528	4809.49		-75.33019	
54.92927	4805.255		-75.20247	
54.98325	4801.025		-75.07067	
55.03724	4796.816		-74.93577	
55.09123	4792.631		-74.79869	
55.14521	4788.47		-74.6603	
55.1992	4784.335		-74.52135	
55.25319	4780.229		-74.38246	
55.30717	4776.152		-74.24418	
55.36116	4772.086		-74.10693	
55.41515	4768.019		-73.97109	
55.46913	4763.952		-73.83703	
55.52312	4759.891		-73.70511	
55.57711	4755.849		-73.57574	
55.63109	4751.836		-73.44926	
55.68508	4747.868		-73.32592	
55.73907	4743.96		-73.20592	
55.79305	4740.139		-73.08939	
55.84704	4736.428		-72.97631	
55.90103	4732.838		-72.86661	
55.95501	4729.352		-72.7601	
56.009	4725.931		-72.65657	
56.06298	4722.539		-72.55576	
56.11697	4719.146		-72.45736	
56.17096	4715.73		-72.36109	
56.22495	4712.282		-72.26665	
