T[Â°C]	330nm [counts / mm]	S.D.
20.0012	3501.573	34.67589
20.05515	3505.737	38.92363
20.1091	3497.347	35.46097
20.16305	3497.362	42.08237
20.21699	3498.361	43.41032
20.27094	3493.485	38.32341
20.32489	3493.103	42.19552
20.37884	3486.756	42.93764
20.43279	3479.008	38.52251
20.48673	3480.666	34.1146
20.54068	3474.865	40.28119
20.59463	3468.585	41.65583
20.64857	3470.572	40.47752
20.70252	3467.713	38.61698
20.75647	3467.174	36.54529
20.81042	3464.217	36.58949
20.86437	3464.074	39.12791
20.91831	3457.849	42.64594
20.97226	3456.643	41.12276
21.02621	3450.625	40.73
21.08016	3450.821	36.99633
21.1341	3449.006	39.98287
21.18805	3447.361	36.66358
21.242	3445.216	39.70299
21.29595	3439.255	38.81746
21.34989	3432.268	38.6139
21.40384	3434.343	33.88561
21.45779	3432.511	39.152
21.51174	3429.397	32.83545
21.56569	3428.751	34.58931
21.61963	3425.378	36.46313
21.67358	3425.712	35.54935
21.72753	3421.841	42.67558
21.78148	3416.663	42.52649
21.83542	3415.827	39.89286
21.88937	3410.838	40.33556
21.94332	3406.773	40.7529
21.99727	3401.377	39.4283
22.05121	3401.391	38.46946
22.10516	3396.251	40.42093
22.15911	3398.497	39.12011
22.21306	3391.155	46.24401
22.267	3393.451	42.38964
22.32095	3389.797	34.6903
22.3749	3384.021	38.26404
22.42885	3384.905	37.1851
22.48279	3382.344	38.17615
22.53674	3378.816	37.53811
22.59069	3374.756	39.75894
22.64464	3372.692	36.0261
22.69859	3369.261	35.24329
22.75253	3367.625	37.5566
22.80648	3364.942	33.67439
22.86043	3368.157	38.94026
22.91438	3364.609	38.22365
22.96832	3352.055	36.78384
23.02227	3353.073	39.58717
23.07622	3351.155	39.1367
23.13017	3351.088	35.55145
23.18411	3344.923	37.35674
23.23806	3343.635	39.65297
23.29201	3344.218	43.04515
23.34596	3344.034	39.13734
23.3999	3340.425	38.49438
23.45385	3337.19	40.93187
23.5078	3336.586	40.31792
23.56175	3329.32	37.84766
23.6157	3326.212	39.38846
23.66964	3322.837	41.93841
23.72359	3318.251	41.59813
23.77754	3318.121	35.43584
23.83149	3320.274	30.36212
23.88543	3316.507	35.41712
23.93938	3316.504	35.65208
23.99333	3312.001	33.20961
24.04728	3307.602	36.18061
24.10122	3302.928	33.28777
24.15517	3305.021	39.26267
24.20912	3298.625	37.14059
24.26307	3293.703	40.44967
24.31701	3294.013	38.59985
24.37096	3294.91	40.85302
24.42491	3291.504	32.51897
24.47886	3285.02	32.29932
24.5328	3278.434	35.81575
24.58675	3284.004	33.91451
24.6407	3278.613	38.36225
24.69465	3278.309	37.80009
24.7486	3275.642	30.72441
24.80254	3267.8	37.91788
24.85649	3271.294	37.09791
24.91044	3271.365	33.90424
24.96439	3263.428	36.54479
25.01833	3263.813	38.75925
25.07228	3262.169	38.49632
25.12623	3256.966	35.36527
25.18018	3255.966	34.08405
25.23412	3252.243	33.25244
25.28807	3247.616	34.99286
25.34202	3247.131	35.26444
25.39597	3242.744	34.59436
25.44991	3240.374	30.91395
25.50386	3235.661	38.73735
25.55781	3233.933	35.65138
25.61176	3232.15	39.03624
25.6657	3229.325	40.932
25.71965	3229.866	36.58405
25.7736	3227.8	35.8933
25.82755	3227.074	36.15736
25.8815	3224.822	34.80074
25.93544	3217.349	33.3981
25.98939	3217.762	33.75831
26.04334	3217.461	33.06335
26.09729	3210.758	36.75725
26.15123	3204.847	37.08561
26.20518	3205.277	39.7962
26.25913	3203.877	37.90687
26.31308	3204.614	35.60996
26.36702	3200.294	35.33044
26.42097	3194.315	36.55287
26.47492	3187.783	31.92599
26.52887	3189.334	34.8222
26.58282	3187.661	41.06787
26.63676	3184.971	35.39887
26.69071	3181.508	35.84243
26.74466	3178.009	36.54936
26.7986	3175.36	36.63366
26.85255	3174.39	36.23401
26.9065	3173.399	40.53402
26.96045	3172.387	37.96037
27.0144	3171.832	34.69425
27.06834	3168.831	31.91823
27.12229	3166.56	29.03838
27.17624	3165.668	32.83186
27.23019	3158.962	35.71974
27.28413	3154.718	35.15756
27.33808	3153.549	35.25919
27.39203	3152.262	36.33078
27.44598	3150.251	30.90594
27.49993	3150.951	32.49594
27.55387	3151.395	33.17998
27.60782	3142.091	31.66561
27.66177	3141.788	35.65055
27.71572	3136.243	33.94054
27.76966	3135.111	32.86011
27.82361	3131.029	26.2432
27.87756	3125.246	27.86935
27.93151	3128.077	31.05093
27.98545	3127.6	31.30417
28.0394	3121.018	35.44913
28.09335	3120.281	40.38618
28.1473	3115.038	26.91706
28.20124	3114.119	31.48163
28.25519	3109.998	31.3513
28.30914	3106.398	26.59843
28.36309	3108.507	36.7659
28.41703	3108.982	32.6871
28.47098	3104.838	34.26368
28.52493	3104.388	36.57056
28.57888	3094.996	26.27604
28.63283	3093.159	29.93062
28.68677	3094.016	32.32901
28.74072	3090.283	32.13982
28.79467	3089.597	38.39429
28.84862	3085.954	36.12793
28.90256	3085.301	33.48422
28.95651	3082.614	33.53265
29.01046	3075.614	30.86655
29.06441	3075.847	30.16416
29.11835	3072.326	30.79428
29.1723	3069.19	34.50788
29.22625	3070.829	33.04219
29.2802	3063.455	32.13707
29.33414	3062.757	35.00572
29.38809	3063.77	36.15365
29.44204	3062.127	36.85642
29.49599	3059.334	37.35543
29.54993	3053.629	31.63928
29.60388	3053.223	33.14788
29.65783	3051.233	36.31567
29.71178	3048.34	31.46992
29.76573	3045.146	33.10263
29.81967	3041.838	26.79367
29.87362	3037.205	29.57576
29.92757	3038.942	26.77796
29.98152	3032.093	32.33416
30.03546	3030.773	34.41814
30.08941	3030.25	30.70173
30.14336	3026.982	33.62894
30.19731	3022.448	32.80419
30.25125	3021.452	31.56177
30.3052	3023.915	31.44794
30.35915	3021.799	30.57338
30.4131	3015.187	31.2255
30.46704	3014.56	33.27681
30.52099	3007.902	34.45271
30.57494	3005.476	35.11522
30.62889	3002.371	27.61588
30.68283	3003.919	29.5683
30.73678	3005.279	33.68121
30.79073	3002.536	29.07274
30.84468	2996.265	29.45438
30.89863	2995.165	30.68585
30.95257	2992.039	30.21208
31.00652	2988.547	27.1489
31.06047	2984.847	25.44296
31.11442	2979.004	33.55929
31.16836	2978.723	36.50147
31.22231	2982.958	33.34138
31.27626	2982.552	36.64596
31.33021	2977.977	36.79428
31.38416	2970.37	34.11242
31.4381	2970.265	33.14323
31.49205	2970.325	30.81485
31.546	2966.68	32.85487
31.59995	2964.262	31.26102
31.65389	2963.293	33.58175
31.70784	2957.966	30.07217
31.76179	2954.594	26.00634
31.81573	2952.601	27.55394
31.86968	2947.418	28.37116
31.92363	2945.546	28.70234
31.97758	2946.329	30.17099
32.03152	2946.021	32.15318
32.08547	2944.115	28.40537
32.13942	2940.132	30.20331
32.19337	2938.296	29.69283
32.24732	2934.755	30.29618
32.30127	2930.747	35.61977
32.35521	2929.895	34.64779
32.40916	2930.806	30.64148
32.46311	2926.815	33.41015
32.51706	2921.421	25.85481
32.571	2919.221	27.6237
32.62495	2918.838	30.97662
32.6789	2917.393	32.2654
32.73285	2916.541	32.85225
32.78679	2914.036	32.05307
32.84074	2908.372	30.1181
32.89469	2908.718	32.0701
32.94864	2907.87	29.20576
33.00258	2903.167	29.02943
33.05653	2900.418	31.72778
33.11048	2896.948	25.98411
33.16442	2898.448	29.08404
33.21837	2896.831	31.13116
33.27232	2892.019	33.12447
33.32627	2887.805	33.82709
33.38022	2882.142	34.28392
33.43417	2881.582	33.14342
33.48811	2881.297	24.66814
33.54206	2880.536	24.05813
33.59601	2878.782	28.63946
33.64996	2877.259	31.29198
33.7039	2874.977	32.55925
33.75785	2870.337	30.11328
33.8118	2868.006	32.47226
33.86575	2867.968	29.61431
33.91969	2860.609	24.79693
33.97364	2860.603	25.78513
34.02759	2857.309	28.13716
34.08154	2855.658	28.8552
34.13548	2849.857	31.90339
34.18943	2849.54	29.15413
34.24338	2845.138	33.05273
34.29733	2843.904	31.0067
34.35127	2845.833	30.76121
34.40522	2842.35	33.98677
34.45917	2840.047	33.51749
34.51312	2841.194	32.33028
34.56707	2838.627	28.89102
34.62101	2834.885	30.3636
34.67496	2833.087	33.62025
34.72891	2832.053	30.65545
34.78286	2829.126	29.56282
34.8368	2823.979	33.88876
34.89075	2823.988	32.80989
34.9447	2824.081	29.82066
34.99865	2819.954	29.65668
35.05259	2816.506	26.43877
35.10654	2822.131	31.13526
35.16049	2808.725	26.84929
35.21444	2807.077	25.3543
35.26838	2809.156	24.65497
35.32233	2802.553	29.09208
35.37628	2804.525	29.92584
35.43023	2803.686	29.25437
35.48417	2800.045	29.5621
35.53812	2797.469	27.67379
35.59207	2796.332	29.68592
35.64602	2790.543	27.76964
35.69997	2788.812	27.87746
35.75391	2787.324	26.56931
35.80786	2782.142	28.84629
35.86181	2777.046	30.40503
35.91576	2776.679	26.87315
35.9697	2775.897	27.73205
36.02365	2773.404	31.44245
36.0776	2772.875	31.25258
36.13155	2769.561	34.82415
36.18549	2767.675	30.77089
36.23944	2768.882	28.31856
36.29339	2765.711	29.45353
36.34734	2762.166	24.38568
36.40128	2759.067	25.20709
36.45523	2757.62	22.33053
36.50918	2752.65	30.21416
36.56313	2751.103	25.30591
36.61707	2749.014	26.49086
36.67102	2746.229	30.12098
36.72497	2744.202	27.07313
36.77892	2740.737	27.9223
36.83287	2737.597	29.7287
36.88681	2740.684	24.70867
36.94076	2739.926	25.33485
36.99471	2735.855	29.51381
37.04866	2735.99	30.75498
37.1026	2732.216	32.31969
37.15655	2728.539	31.66089
37.2105	2724.187	24.94724
37.26445	2723.347	25.19296
37.31839	2720.882	29.04531
37.37234	2720.167	24.76154
37.42629	2715.501	24.9546
37.48024	2713.337	23.96267
37.53418	2711.209	29.19974
37.58813	2709.78	30.10632
37.64208	2707.011	30.7681
37.69603	2707.006	32.29459
37.74998	2705.086	25.61313
37.80392	2701.412	27.91725
37.85787	2693.568	29.13176
37.91182	2694.332	28.93238
37.96577	2698.087	22.68661
38.01971	2694.253	25.60642
38.07366	2690.006	27.00056
38.12761	2688.296	28.41372
38.18156	2686.867	27.19184
38.2355	2683.595	24.33403
38.28945	2676.857	27.19983
38.3434	2675.739	25.16867
38.39735	2674.783	24.01087
38.45129	2672.897	28.42582
38.50524	2673.012	30.26245
38.55919	2671.299	28.73238
38.61314	2667.995	26.31184
38.66708	2664.841	26.38547
38.72103	2661.824	27.15437
38.77498	2660.688	26.26123
38.82893	2658.944	26.56013
38.88288	2657.652	27.34318
38.93682	2655.216	27.92419
38.99077	2655.487	29.46125
39.04472	2656.654	27.85265
39.09867	2649.563	28.85647
39.15261	2643.809	32.80455
39.20656	2646.156	28.73301
39.26051	2647.603	31.6592
39.31446	2641.985	28.77969
39.3684	2640.166	27.05262
39.42235	2639.53	27.20689
39.4763	2638.757	24.1145
39.53025	2628.521	31.31669
39.58419	2626.678	24.19642
39.63814	2628.272	27.62049
39.69209	2623.842	24.27614
39.74604	2622.036	25.83836
39.79998	2623.154	26.67675
39.85393	2618.098	27.58547
39.90788	2618.18	28.10994
39.96183	2613.565	31.11843
40.01578	2610.168	32.02468
40.06973	2609.143	30.22887
40.12367	2609.838	27.52663
40.17762	2606.471	28.22625
40.23157	2605.921	29.13767
40.28551	2602.125	27.56199
40.33946	2601.465	28.69533
40.39341	2597.898	26.48302
40.44736	2596.321	28.69559
40.5013	2593.666	26.0079
40.55525	2591.913	22.00862
40.6092	2588.311	22.5052
40.66315	2587.656	22.23362
40.71709	2579.481	31.45081
40.77104	2581.802	24.34335
40.82499	2581.963	25.89608
40.87894	2578.915	24.95811
40.93288	2572.009	22.24943
40.98683	2572.517	26.61626
41.04078	2575.971	26.55898
41.09473	2570.595	30.81003
41.14868	2565.14	28.5131
41.20263	2567.347	26.26596
41.25657	2562.61	26.05558
41.31052	2561.926	25.62182
41.36447	2553.244	25.60699
41.41842	2555.137	25.51129
41.47236	2556.323	26.49672
41.52631	2553.452	27.99466
41.58026	2551.275	26.01939
41.6342	2551.279	22.07724
41.68815	2547.578	18.43839
41.7421	2546.5	23.26137
41.79605	2541.202	26.19059
41.84999	2540.431	25.88255
41.90394	2538.817	23.71648
41.95789	2538.248	23.79643
42.01184	2536.779	24.56137
42.06578	2535.238	21.99121
42.11973	2534.085	22.67403
42.17368	2528.244	26.95216
42.22763	2522.311	27.97036
42.28158	2521.372	24.24128
42.33553	2522.126	21.77911
42.38947	2519.455	27.24703
42.44342	2516.563	29.597
42.49737	2514.853	28.13614
42.55132	2510.468	28.20227
42.60526	2511.56	27.60162
42.65921	2509.975	24.10243
42.71316	2510.448	25.69177
42.76711	2509.527	20.86992
42.82105	2499.963	31.3934
42.875	2498.48	28.77666
42.92895	2498.611	24.39039
42.98289	2497.864	24.35124
43.03684	2491.482	27.28335
43.09079	2494.128	27.61127
43.14474	2489.724	25.07538
43.19868	2485.778	27.59414
43.25263	2485.089	24.17791
43.30658	2484.65	26.19727
43.36053	2481.991	29.20391
43.41448	2485.486	26.42964
43.46843	2476.457	21.6509
43.52237	2476.338	23.07666
43.57632	2471.627	31.19633
43.63027	2470.675	28.59105
43.68422	2470.059	27.36312
43.73816	2466.693	26.95839
43.79211	2467.629	21.93515
43.84606	2469.089	19.90139
43.90001	2460.267	22.54042
43.95395	2459.077	21.42896
44.0079	2453.287	26.01786
44.06185	2455.576	22.24885
44.1158	2449.763	21.44349
44.16974	2449.625	23.01969
44.22369	2449.794	20.87296
44.27764	2446.443	28.8875
44.33158	2447.341	21.65651
44.38554	2445.559	24.46598
44.43948	2438.741	25.52618
44.49343	2438.435	22.65262
44.54738	2438.424	26.52593
44.60133	2437.657	24.39248
44.65527	2434.307	24.7315
44.70922	2430.667	20.48041
44.76317	2427.847	24.40543
44.81712	2430.313	23.80324
44.87106	2422.307	20.32563
44.92501	2426.385	19.789
44.97896	2415.899	21.13078
45.03291	2414.981	21.67122
45.08685	2416.923	27.61061
45.1408	2415.663	24.19634
45.19475	2411.766	26.01846
45.2487	2412.715	25.32805
45.30264	2407.356	23.15524
45.35659	2408.077	22.49829
45.41054	2404.734	23.19361
45.46449	2403.746	24.09953
45.51844	2400.522	24.67552
45.57238	2400.513	27.44483
45.62633	2398.183	28.19282
45.68028	2395.194	23.27227
45.73423	2393.174	21.88618
45.78817	2390.765	26.1753
45.84212	2391.994	28.07542
45.89607	2387.404	25.42123
45.95002	2386.108	28.32964
46.00396	2383.273	21.78968
46.05791	2381.706	20.38336
46.11186	2377.593	19.84771
46.16581	2376.167	20.23184
46.21975	2371.078	25.69746
46.2737	2366.127	25.48685
46.32765	2370.71	25.56883
46.3816	2370.763	27.1239
46.43554	2363.485	23.49285
46.48949	2362.944	26.4462
46.54344	2358.976	27.19252
46.59739	2356.122	29.25164
46.65134	2357.855	24.8861
46.70528	2356.395	26.32322
46.75923	2354.303	22.25229
46.81318	2356.522	20.82069
46.86713	2349.664	25.41846
46.92107	2349.06	29.96367
46.97502	2342.576	22.41075
47.02897	2342.06	23.99315
47.08292	2342.487	23.28488
47.13686	2341.063	23.35359
47.19081	2337.146	23.03394
47.24476	2339.922	20.25458
47.29871	2336.797	20.95513
47.35265	2335.351	19.47767
47.4066	2332.396	19.50969
47.46055	2331.579	21.5397
47.5145	2325.649	18.13647
47.56844	2326.288	18.59096
47.62239	2325.569	20.50963
47.67634	2322.122	26.61382
47.73029	2317.544	20.39398
47.78424	2315.682	22.55929
47.83818	2315.478	25.29766
47.89213	2315.241	23.48585
47.94608	2315.028	23.33895
48.00003	2310.841	24.24807
48.05397	2309.703	26.87408
48.10792	2307.879	26.94629
48.16187	2301.289	18.04758
48.21582	2301.709	20.22015
48.26976	2296.232	19.54932
48.32371	2295.989	23.4155
48.37766	2296.371	23.17237
48.43161	2294.625	20.51664
48.48555	2290.462	22.20799
48.5395	2289.188	22.24399
48.59345	2290.745	18.5443
48.6474	2288.341	20.35485
48.70134	2281.751	21.53687
48.75529	2281.659	25.38874
48.80924	2279.381	19.50028
48.86319	2277.254	21.16624
48.91714	2273.423	26.99766
48.97108	2273.563	24.17773
49.02503	2270.102	20.93141
49.07898	2270.603	23.05238
49.13293	2269.802	21.67175
49.18687	2268.575	22.30319
49.24082	2266.701	23.6623
49.29477	2266.153	24.22822
49.34872	2263.002	25.12764
49.40266	2257.497	24.87241
49.45661	2257.164	24.52732
49.51056	2255.257	20.91352
49.56451	2254.8	19.96258
49.61845	2249.956	22.98229
49.6724	2250.461	20.39604
49.72635	2247.445	22.23643
49.7803	2249.704	22.8031
49.83424	2239.667	28.60386
49.88819	2242.024	26.91612
49.94214	2239.605	24.23808
49.99609	2237.919	25.01678
50.05004	2234.43	24.29698
50.10398	2231.921	24.79116
50.15793	2233.631	23.34354
50.21188	2233.313	22.21952
50.26583	2230.38	24.06169
50.31977	2233.721	23.0757
50.37372	2222.017	24.78526
50.42767	2225.199	23.77606
50.48162	2218.46	20.77869
50.53556	2220.059	20.28193
50.58951	2219.152	20.73863
50.64346	2219.165	21.44587
50.69741	2211.017	21.53423
50.75135	2213.694	21.53583
50.8053	2208.936	25.92511
50.85925	2210.422	22.03208
50.9132	2202.288	21.37128
50.96714	2205.634	16.88807
51.02109	2200.232	21.32195
51.07504	2200.876	20.36463
51.12899	2197.294	20.49289
51.18294	2196.339	24.03488
51.23689	2196.826	18.73642
51.29083	2198.524	19.82917
51.34478	2191.815	19.80421
51.39873	2191.276	21.55006
51.45267	2187.507	20.84532
51.50662	2187.596	22.86382
51.56057	2181.904	25.12592
51.61452	2181.955	21.17695
51.66846	2182.045	19.67239
51.72241	2181.777	18.59629
51.77636	2177.628	17.87005
51.83031	2176.812	18.50047
51.88425	2171.798	18.50663
51.9382	2170.166	18.96001
51.99215	2168.336	21.08902
52.0461	2169.277	21.9234
52.10004	2165.466	22.45758
52.154	2166.607	23.18526
52.20794	2160.116	17.76549
52.26189	2159.529	19.83018
52.31584	2156.132	22.86997
52.36979	2156.891	22.35682
52.42373	2155.804	26.36535
52.47768	2151.445	24.25724
52.53163	2151.344	20.75594
52.58558	2151.822	19.65858
52.63952	2148.516	18.37323
52.69347	2147.087	19.97605
52.74742	2142.252	22.66714
52.80136	2140.132	24.97336
52.85531	2136.899	22.03055
52.90926	2137.457	19.31273
52.96321	2136.819	19.45904
53.01715	2135.533	20.82685
53.0711	2135.245	21.74555
53.12505	2129.715	22.08649
53.179	2127.674	22.0174
53.23294	2125.697	23.91987
53.2869	2124.362	18.53794
53.34084	2121.732	22.23146
53.39479	2123.622	18.06939
53.44874	2117.814	22.21616
53.50269	2116.915	23.43054
53.55663	2114.328	21.10468
53.61058	2113.587	19.60341
53.66453	2114.623	16.02551
53.71848	2114.169	16.35016
53.77242	2107.238	23.37412
53.82637	2106.595	23.77904
53.88032	2101.757	17.54857
53.93427	2104.24	21.54224
53.98821	2095.486	21.40719
54.04216	2094.269	18.80556
54.09611	2095.147	23.54873
54.15005	2095.823	23.97521
54.204	2092.138	19.71868
54.25795	2093.194	17.37442
54.3119	2088.07	19.17041
54.36585	2088.459	16.70995
54.4198	2088.471	19.30652
54.47374	2083.801	17.4343
54.52769	2080.721	17.70936
54.58164	2080.057	22.64588
54.63559	2080.583	11.6132
54.68953	2077.713	14.53962
54.74348	2071.939	19.14742
54.79743	2073.37	20.93289
54.85138	2068.271	20.20806
54.90532	2066.919	19.29948
54.95927	2066.492	23.98362
55.01322	2066.497	21.23553
55.06717	2059.931	22.53894
55.12111	2062.665	19.2134
55.17506	2060.219	18.79456
55.22901	2061.062	19.4548
55.28296	2055.874	21.64865
55.3369	2057.253	18.71837
55.39085	2054.555	19.31533
55.4448	2054.75	21.63972
55.49875	2045.927	17.65943
55.5527	2048.116	21.1984
55.60664	2041.93	18.63037
55.66059	2044.656	16.80324
55.71454	2042.433	23.09658
55.76849	2043.038	24.22616
55.82243	2036.235	21.50035
55.87638	2038.747	18.7673
55.93033	2035.752	21.46535
55.98428	2034.849	22.81974
56.03822	2032.021	22.68497
56.09217	2031.484	18.3791
56.14612	2030.289	20.33602
56.20007	2027.47	20.5339
56.25401	2024.288	17.73282
56.30796	2023.899	18.61855
56.36191	2021.994	20.97198
56.41586	2020.544	17.96621
56.4698	2019.313	16.68866
56.52375	2017.704	19.09023
56.5777	2015.695	19.55509
56.63165	2010.585	22.71071
56.6856	2010.938	20.37673
56.73954	2008.829	16.99405
56.79349	2008.418	21.52429
56.84744	2003.009	20.3636
56.90139	2002.795	20.35329
56.95533	2000.883	18.25049
57.00928	2001.973	19.93578
57.06323	1998.282	20.06624
57.11718	2000.031	22.57562
57.17112	1995.135	17.64924
57.22507	1996.14	15.73163
57.27902	1991.798	21.42799
57.33297	1993.611	20.47034
57.38691	1988.373	18.49944
57.44086	1988.242	16.18292
57.49481	1980.731	19.2644
57.54876	1982.153	15.62287
57.6027	1982.179	20.50329
57.65665	1981.481	17.88579
57.7106	1976.541	16.45736
57.76455	1977.462	13.62819
57.8185	1970.107	21.32006
57.87244	1972.47	15.35088
57.92639	1968.711	16.63144
57.98034	1969.995	16.99265
58.03429	1966.418	17.37742
58.08823	1967.708	20.80753
58.14218	1967.214	16.36381
58.19613	1965.162	17.74298
58.25008	1961.962	20.03677
58.30402	1959.468	20.30342
58.35797	1956.401	20.78413
58.41192	1955.943	20.06065
58.46587	1951.389	16.71703
58.51981	1951.858	17.88491
58.57376	1949.608	16.61416
58.62771	1950.985	16.98075
58.68166	1942.254	21.06909
58.7356	1945.122	15.87673
58.78955	1938.311	14.2808
58.8435	1940.902	16.54907
58.89745	1937.312	18.68349
58.9514	1940.483	17.52682
59.00534	1935.99	19.77496
59.05929	1934.766	15.44207
59.11324	1934.73	18.52007
59.16719	1935.985	15.2422
59.22113	1927.42	18.03051
59.27508	1925.411	17.97751
59.32903	1924.431	19.09576
59.38298	1925.403	17.62601
59.43692	1925.362	17.3324
59.49087	1924.984	20.93611
59.54482	1921.027	21.64446
59.59877	1915.639	17.62554
59.65271	1916.863	16.65748
59.70666	1913.19	20.0038
59.76061	1916.924	20.56852
59.81456	1914.303	18.82998
59.8685	1918.289	21.8111
59.92245	1909.24	18.44807
59.9764	1909.694	20.10773
60.03035	1905.146	19.23777
60.0843	1906.84	16.28532
60.13824	1903.829	22.43876
60.19219	1904.148	22.45161
60.24614	1897.236	18.36712
60.30009	1894.708	17.88772
