T[Â°C]	330nm [counts / mm]	S.D.	First derivative	S.D. of first derivative
19.99944	7951.657	29.49062	-117.036	2.55305
20.05342	7945.345	29.44076	-116.8637	2.538512
20.10741	7939.03	29.40303	-116.6916	2.523422
20.1614	7932.711	29.37787	-116.5196	2.507714
20.21539	7926.391	29.36465	-116.3477	2.491338
20.26938	7920.069	29.36251	-116.1761	2.474233
20.32337	7913.748	29.37074	-116.0046	2.456362
20.37736	7907.426	29.38696	-115.8335	2.437677
20.43135	7901.105	29.41004	-115.6626	2.418135
20.48534	7894.786	29.43818	-115.4921	2.397711
20.53933	7888.466	29.46984	-115.3219	2.376375
20.59332	7882.149	29.50381	-115.1521	2.354106
20.64731	7875.833	29.53801	-114.9828	2.330886
20.7013	7869.519	29.57193	-114.8139	2.306709
20.75529	7863.207	29.60519	-114.6456	2.281573
20.80928	7856.895	29.63802	-114.4778	2.255478
20.86327	7850.58	29.67371	-114.3106	2.228445
20.91726	7844.253	29.72407	-114.144	2.200479
20.97124	7837.899	29.81727	-113.9781	2.171625
21.02523	7831.616	29.85426	-113.8128	2.141905
21.07922	7825.355	29.87801	-113.6482	2.111372
21.13321	7819.12	29.88571	-113.4844	2.08008
21.1872	7812.91	29.87232	-113.3212	2.048092
21.24119	7806.717	29.83002	-113.1589	2.015481
21.29518	7800.541	29.74767	-112.9973	1.982331
21.34917	7794.38	29.61833	-112.8364	1.948741
21.40316	7788.232	29.4417	-112.6763	1.914805
21.45715	7782.095	29.21962	-112.517	1.880643
21.51114	7775.971	28.95385	-112.3583	1.846379
21.56513	7769.861	28.64522	-112.2004	1.812142
21.61912	7763.77	28.28633	-112.0431	1.778072
21.67311	7757.704	27.87171	-111.8865	1.744307
21.7271	7751.673	27.40294	-111.7303	1.711011
21.78109	7745.684	26.88889	-111.5747	1.67832
21.83508	7739.733	26.34174	-111.4194	1.646394
21.88906	7733.813	25.77325	-111.2644	1.615382
21.94305	7727.917	25.20019	-111.1095	1.585436
21.99704	7722.036	24.63836	-110.9547	1.556698
22.05103	7716.168	24.10518	-110.7996	1.529296
22.10502	7710.314	23.61794	-110.6443	1.503332
22.15901	7704.479	23.19428	-110.4883	1.478882
22.213	7698.668	22.84848	-110.3315	1.455947
22.26699	7692.882	22.58409	-110.1735	1.434418
22.32098	7687.118	22.39351	-110.0141	1.413967
22.37497	7681.363	22.26896	-109.8529	1.393948
22.42896	7675.605	22.20165	-109.6896	1.373191
22.48295	7669.839	22.18677	-109.524	1.349819
22.53694	7664.064	22.21786	-109.3562	1.321156
22.59093	7658.277	22.2969	-109.1866	1.284117
22.64492	7652.483	22.42881	-109.0532	1.193659
22.69891	7646.68	22.61201	-108.9231	1.100154
22.7529	7640.872	22.8471	-108.7967	1.004136
22.80688	7635.066	23.13834	-108.6744	0.9061689
22.86087	7629.266	23.47716	-108.5566	0.8068883
22.91486	7623.467	23.85116	-108.4437	0.7070217
22.96885	7617.665	24.24099	-108.3361	0.607399
23.02284	7611.853	24.63068	-108.2341	0.5090541
23.07683	7606.028	25.01117	-108.1381	0.4133534
23.13082	7600.19	25.37974	-108.0483	0.3223811
23.18481	7594.337	25.74072	-107.9649	0.239974
23.2388	7588.471	26.08894	-107.888	0.1746561
23.29279	7582.598	26.40671	-107.8175	0.1441544
23.34678	7576.727	26.67333	-107.7534	0.1612216
23.40077	7570.857	26.87786	-107.6953	0.2080435
23.45476	7564.993	27.01883	-107.6429	0.2635485
23.50875	7559.132	27.10444	-107.5959	0.3180247
23.56274	7553.274	27.14166	-107.5537	0.3672997
23.61673	7547.416	27.13049	-107.5158	0.4092825
23.67072	7541.563	27.07049	-107.4817	0.4427938
23.72471	7535.726	26.96445	-107.4508	0.4672122
23.7787	7529.917	26.821	-107.4225	0.4823553
23.83269	7524.153	26.64799	-107.3962	0.4884938
23.88667	7518.44	26.45701	-107.3715	0.4863747
23.94066	7512.777	26.26635	-107.3477	0.4773117
23.99465	7507.154	26.094	-107.3244	0.4633119
24.04864	7501.554	25.95411	-107.3011	0.4471939
24.10263	7495.955	25.85073	-107.2774	0.4327037
24.15662	7490.334	25.7883	-107.2529	0.4242969
24.21061	7484.675	25.77059	-107.2273	0.4265319
24.2646	7478.973	25.79358	-107.2002	0.4428484
24.31859	7473.226	25.85144	-107.1714	0.4744854
24.37258	7467.44	25.94182	-107.1408	0.520296
24.42657	7461.625	26.0627	-107.1081	0.5775552
24.48056	7455.788	26.20539	-107.0734	0.6429853
24.53455	7449.938	26.36187	-107.0366	0.7134483
24.58854	7444.084	26.52846	-106.998	0.7861943
24.64253	7438.229	26.70505	-106.9576	0.858918
24.69652	7432.381	26.88965	-106.9156	0.9297056
24.75051	7426.551	27.07564	-106.8724	0.9969595
24.80449	7420.748	27.26231	-106.8281	1.059392
24.85848	7414.98	27.44656	-106.783	1.115982
24.91247	7409.243	27.61653	-106.7374	1.165983
24.96646	7403.52	27.75979	-106.6913	1.208919
25.02045	7397.796	27.86754	-106.6451	1.244531
25.07444	7392.053	27.92835	-106.5987	1.27276
25.12843	7386.281	27.93331	-106.5522	1.293689
25.18242	7380.473	27.88081	-106.5058	1.307502
25.23641	7374.624	27.76877	-106.4595	1.314461
25.2904	7368.738	27.59825	-106.4132	1.314899
25.34439	7362.823	27.36968	-106.367	1.309217
25.39838	7356.894	27.08151	-106.3206	1.297886
25.45237	7350.963	26.73354	-106.2741	1.281393
25.50636	7345.047	26.33054	-106.2271	1.260258
25.56035	7339.157	25.88224	-106.1796	1.235044
25.61434	7333.299	25.40152	-106.1312	1.206331
25.66833	7327.477	24.90111	-106.0816	1.174667
25.72231	7321.685	24.39308	-106.0307	1.140545
25.7763	7315.918	23.8888	-105.978	1.104354
25.83029	7310.176	23.39149	-105.9232	1.06638
25.88428	7304.457	22.90187	-105.866	1.026806
25.93827	7298.762	22.42116	-105.806	0.9857432
25.99226	7293.087	21.95481	-105.7429	0.9432741
26.04625	7287.429	21.51048	-105.6763	0.899457
26.10024	7281.78	21.09625	-105.606	0.8543187
26.15423	7276.138	20.7229	-105.5316	0.8079041
26.20822	7270.5	20.40269	-105.4531	0.7602569
26.26221	7264.867	20.1478	-105.3701	0.7114701
26.3162	7259.238	19.96616	-105.2827	0.6616906
26.37019	7253.617	19.86333	-105.1908	0.6111596
26.42418	7248.007	19.84149	-105.0944	0.5602159
26.47817	7242.414	19.89995	-104.9936	0.5092981
26.53216	7236.842	20.03437	-104.8886	0.4589569
26.58615	7231.29	20.23829	-104.7795	0.4098264
26.64013	7225.751	20.50122	-104.6667	0.3626499
26.69412	7220.222	20.80956	-104.5504	0.3183143
26.74811	7214.697	21.15086	-104.431	0.2778548
26.8021	7209.168	21.50891	-104.3089	0.2424614
26.85609	7203.628	21.8623	-104.1845	0.2134394
26.91008	7198.064	22.19425	-104.0582	0.1919757
26.96407	7192.468	22.49583	-103.9304	0.1787679
27.01806	7186.828	22.76479	-103.8015	0.1735241
27.07205	7181.137	23.00438	-103.6718	0.1748818
27.12604	7175.396	23.21695	-103.5415	0.1808339
27.18003	7169.61	23.40801	-103.4112	0.1893399
27.23402	7163.789	23.59158	-103.2811	0.1987319
27.28801	7157.945	23.78353	-103.1517	0.2078086
27.342	7152.098	23.99676	-103.0232	0.2157895
27.39599	7146.264	24.23822	-102.8961	0.2221502
27.44998	7140.466	24.4959	-102.7707	0.2265542
27.50397	7134.724	24.75035	-102.6472	0.2288058
27.55795	7129.053	24.98195	-102.526	0.228781
27.61194	7123.463	25.17559	-102.4072	0.2264144
27.66593	7117.946	25.31909	-102.291	0.2217101
27.71992	7112.481	25.41811	-102.1774	0.2147369
27.77391	7107.047	25.49128	-102.0667	0.2057059
27.8279	7101.624	25.55497	-101.9586	0.1950623
27.88189	7096.2	25.61994	-101.8532	0.1835686
27.93588	7090.773	25.69254	-101.7503	0.1724848
27.98987	7085.343	25.77759	-101.6498	0.1637109
28.04386	7079.911	25.87606	-101.5515	0.1597699
28.09785	7074.475	25.98264	-101.4553	0.1633038
28.15184	7069.034	26.08427	-101.3611	0.1760723
28.20583	7063.597	26.1666	-101.2687	0.198246
28.25982	7058.173	26.21782	-101.178	0.2287084
28.31381	7052.77	26.23167	-101.0891	0.2659068
28.3678	7047.395	26.20554	-101.0018	0.308397
28.42179	7042.052	26.13802	-100.9163	0.3550142
28.47577	7036.736	26.03316	-100.8325	0.4048762
28.52976	7031.432	25.89458	-100.7505	0.4572939
28.58375	7026.125	25.72305	-100.6702	0.5117266
28.63774	7020.802	25.51962	-100.5916	0.5676868
28.69173	7015.457	25.29118	-100.5148	0.624772
28.74572	7010.087	25.0416	-100.4395	0.6825994
28.79971	7004.698	24.77427	-100.3658	0.7407963
28.8537	6999.301	24.49362	-100.2935	0.7989595
28.90769	6993.9	24.19825	-100.2225	0.8566214
28.96168	6988.504	23.88112	-100.1528	0.913237
29.01567	6983.123	23.53621	-100.0843	0.9681411
29.06966	6977.764	23.15512	-100.017	1.020578
29.12365	6972.431	22.73598	-99.9509	1.069734
29.17764	6967.128	22.28845	-99.88608	1.11476
29.23163	6961.849	21.82867	-99.82265	1.15483
29.28562	6956.589	21.37592	-99.76077	1.189151
29.33961	6951.336	20.95371	-99.70061	1.216996
29.3936	6946.079	20.58735	-99.64236	1.237718
29.44759	6940.805	20.29339	-99.58618	1.250775
29.50158	6935.514	20.07994	-99.53221	1.255739
29.55556	6930.211	19.9477	-99.48058	1.25232
29.60955	6924.902	19.88568	-99.43136	1.240358
29.66354	6919.59	19.87441	-99.38459	1.219822
29.71753	6914.277	19.89712	-99.34028	1.190804
29.77152	6908.962	19.94122	-99.29842	1.15355
29.82551	6903.634	20.00314	-99.25896	1.108438
29.8795	6898.283	20.08069	-99.22183	1.055979
29.93349	6892.908	20.17435	-99.18698	0.9968149
29.98748	6887.512	20.28968	-99.15435	0.9316806
30.04147	6882.093	20.4394	-99.12388	0.8614199
30.09546	6876.648	20.63083	-99.0955	0.7870214
30.14945	6871.175	20.86317	-99.06911	0.7096499
30.20344	6865.683	21.13104	-99.04457	0.6307275
30.25743	6860.179	21.43054	-99.02169	0.5520525
30.31142	6854.674	21.75619	-99.00024	0.4760615
30.36541	6849.177	22.09632	-98.97997	0.406162
30.4194	6843.699	22.43773	-98.96061	0.347267
30.47338	6838.246	22.76336	-98.9419	0.3060082
30.52737	6832.815	23.05576	-98.92358	0.2890127
30.58136	6827.407	23.29766	-98.90536	0.2984007
30.63535	6822.019	23.47482	-98.88689	0.3292263
30.68934	6816.644	23.57786	-98.86786	0.373244
30.74333	6811.277	23.60978	-98.84791	0.4233372
30.79732	6805.92	23.58235	-98.82667	0.4746761
30.85131	6800.57	23.50974	-98.80379	0.5242482
30.9053	6795.222	23.40866	-98.7789	0.5702258
30.95929	6789.875	23.29323	-98.75163	0.6115692
31.01328	6784.525	23.17344	-98.72164	0.6478561
31.06727	6779.178	23.052	-98.68865	0.6791376
31.12126	6773.843	22.92613	-98.65243	0.705919
31.17525	6768.526	22.79227	-98.61281	0.7290698
31.22924	6763.234	22.64813	-98.56968	0.7497595
31.28323	6757.969	22.49103	-98.52301	0.7693676
31.33722	6752.732	22.32615	-98.47282	0.7893658
31.3912	6747.523	22.16479	-98.41918	0.8111867
31.44519	6742.336	22.01742	-98.36216	0.8360503
31.49918	6737.162	21.89548	-98.3019	0.8648047
31.55317	6731.99	21.81126	-98.23853	0.897848
31.60716	6726.807	21.77263	-98.17221	0.9350607
31.66115	6721.598	21.78563	-98.10307	0.9758866
31.71514	6716.358	21.85066	-98.03123	1.019441
31.76913	6711.086	21.96014	-97.95688	1.064624
31.82312	6705.782	22.10316	-97.88022	1.110214
31.87711	6700.452	22.26613	-97.8015	1.155005
31.9311	6695.108	22.43368	-97.72103	1.197827
31.98509	6689.762	22.59744	-97.63921	1.237649
32.03908	6684.42	22.7483	-97.55644	1.273624
32.09307	6679.085	22.87831	-97.47314	1.305125
32.14706	6673.762	22.98646	-97.38977	1.331773
32.20105	6668.457	23.07736	-97.30669	1.35348
32.25504	6663.167	23.15376	-97.22427	1.370442
32.30902	6657.886	23.21686	-97.14277	1.383154
32.36301	6652.604	23.26094	-97.06242	1.392318
32.417	6647.316	23.28585	-96.98341	1.398801
32.47099	6642.017	23.2905	-96.90588	1.403564
32.52498	6636.699	23.27515	-96.82993	1.407615
32.57897	6631.357	23.23812	-96.75565	1.411919
32.63296	6625.995	23.17144	-96.68311	1.417372
32.68695	6620.618	23.06102	-96.61234	1.42474
32.74094	6615.236	22.89751	-96.54343	1.43463
32.79493	6609.866	22.66856	-96.47639	1.447495
32.84892	6604.531	22.36528	-96.41123	1.463579
32.90291	6599.253	21.98618	-96.34798	1.482909
32.9569	6594.041	21.54041	-96.28664	1.505295
33.01089	6588.894	21.04963	-96.2272	1.530345
33.06488	6583.8	20.53585	-96.16963	1.557489
33.11887	6578.744	20.01986	-96.11388	1.586003
33.17286	6573.71	19.52019	-96.05988	1.61507
33.22684	6568.685	19.04848	-96.00751	1.643841
33.28083	6563.651	18.60754	-95.95669	1.671467
33.33482	6558.6	18.20041	-95.9073	1.697142
33.38881	6553.528	17.83256	-95.85922	1.720122
33.4428	6548.438	17.50938	-95.81237	1.739732
33.49679	6543.335	17.23092	-95.76665	1.755395
33.55078	6538.229	16.99286	-95.72202	1.76663
33.60477	6533.121	16.79436	-95.67841	1.773071
33.65876	6528.02	16.64204	-95.6358	1.774479
33.71275	6522.931	16.54471	-95.59418	1.770737
33.76674	6517.855	16.50864	-95.55351	1.761859
33.82073	6512.789	16.53413	-95.51377	1.747976
33.87472	6507.726	16.62064	-95.47495	1.729351
33.92871	6502.661	16.77161	-95.43706	1.706362
33.9827	6497.583	16.98511	-95.40006	1.67945
34.03669	6492.482	17.25333	-95.36394	1.649127
34.09068	6487.35	17.56288	-95.3286	1.61594
34.14466	6482.187	17.89787	-95.29395	1.580456
34.19865	6477	18.24078	-95.25983	1.543242
34.25264	6471.804	18.57691	-95.22614	1.504853
34.30663	6466.612	18.89135	-95.19273	1.4658
34.36062	6461.43	19.17229	-95.15949	1.426588
34.41461	6456.267	19.40686	-95.1263	1.387687
34.4686	6451.123	19.58314	-95.09303	1.349542
34.52259	6445.998	19.70146	-95.05952	1.31256
34.57658	6440.896	19.77147	-95.02557	1.27714
34.63057	6435.82	19.80076	-94.991	1.243645
34.68456	6430.762	19.79902	-94.95564	1.212413
34.73855	6425.709	19.77954	-94.91927	1.183748
34.79254	6420.657	19.74984	-94.88172	1.157951
34.84653	6415.603	19.71106	-94.84275	1.135288
34.90052	6410.544	19.65737	-94.80216	1.116012
34.95451	6405.481	19.58626	-94.75977	1.1004
35.0085	6400.412	19.499	-94.71542	1.088738
35.06248	6395.335	19.40246	-94.66894	1.081316
35.11647	6390.247	19.30679	-94.62018	1.078446
35.17046	6385.141	19.22606	-94.56899	1.080404
35.22445	6380.008	19.16982	-94.51522	1.087367
35.27844	6374.844	19.13741	-94.45873	1.099404
35.33243	6369.649	19.11711	-94.39944	1.11644
35.38642	6364.43	19.09599	-94.3373	1.138243
35.44041	6359.194	19.05964	-94.27229	1.164431
35.4944	6353.941	19.00001	-94.20441	1.19445
35.54839	6348.667	18.9154	-94.13369	1.22762
35.60238	6343.374	18.81352	-94.06017	1.263139
35.65637	6338.071	18.70868	-93.98397	1.300132
35.71036	6332.773	18.61495	-93.90524	1.337678
35.76435	6327.494	18.5418	-93.82418	1.374832
35.81834	6322.243	18.49117	-93.74097	1.410664
35.87233	6317.028	18.46037	-93.65582	1.444297
35.92632	6311.856	18.43629	-93.56896	1.474944
35.9803	6306.724	18.40803	-93.48064	1.501936
36.03429	6301.62	18.37117	-93.39109	1.524743
36.08828	6296.533	18.31977	-93.30051	1.542976
36.14227	6291.451	18.24447	-93.20911	1.556393
36.19626	6286.372	18.13009	-93.11708	1.56489
36.25025	6281.299	17.96552	-93.02466	1.568485
36.30424	6276.242	17.75357	-92.9321	1.567305
36.35823	6271.209	17.50575	-92.83969	1.561541
36.41222	6266.206	17.23248	-92.74776	1.551497
36.46621	6261.232	16.94179	-92.65663	1.537554
36.5202	6256.289	16.64788	-92.56664	1.520144
36.57419	6251.375	16.35806	-92.47808	1.499756
36.62818	6246.494	16.07168	-92.39127	1.4769
36.68217	6241.638	15.79711	-92.30651	1.45207
36.73616	6236.801	15.54423	-92.22399	1.425748
36.79015	6231.968	15.31511	-92.14388	1.398347
36.84414	6227.123	15.10718	-92.06627	1.370193
36.89812	6222.247	14.90895	-91.99116	1.341526
36.95211	6217.328	14.71546	-91.91849	1.312539
37.0061	6212.372	14.5174	-91.84818	1.283385
37.06009	6207.395	14.30412	-91.78013	1.254212
37.11408	6202.417	14.0694	-91.7142	1.22519
37.16807	6197.455	13.81599	-91.65027	1.196482
37.22206	6192.512	13.55917	-91.58818	1.168229
37.27605	6187.592	13.32613	-91.52782	1.140569
37.33004	6182.703	13.14679	-91.46908	1.113611
37.38403	6177.854	13.04368	-91.4119	1.08744
37.43802	6173.044	13.02992	-91.3562	1.062136
37.49201	6168.271	13.09916	-91.30194	1.037756
37.546	6163.521	13.23079	-91.24904	1.014348
37.59999	6158.786	13.40222	-91.19745	0.9919806
37.65398	6154.054	13.58835	-91.1471	0.9707254
37.70797	6149.316	13.76897	-91.09794	0.9506609
37.76196	6144.569	13.93718	-91.04989	0.9318531
37.81594	6139.813	14.09731	-91.00287	0.9143594
37.86993	6135.043	14.25786	-90.95679	0.8982018
37.92392	6130.257	14.42726	-90.91158	0.8834186
37.97791	6125.456	14.61779	-90.86712	0.8700646
38.0319	6120.642	14.83927	-90.82334	0.8582167
38.08589	6115.82	15.09678	-90.78014	0.8479994
38.13988	6110.992	15.38531	-90.73749	0.8395902
38.19387	6106.15	15.6897	-90.69534	0.8331884
38.24786	6101.288	15.98994	-90.65373	0.8290248
38.30185	6096.408	16.26417	-90.61266	0.8273177
38.35584	6091.515	16.49835	-90.57218	0.8282728
38.40983	6086.61	16.68048	-90.53235	0.8320286
38.46382	6081.689	16.81209	-90.4932	0.8386689
38.51781	6076.745	16.89561	-90.45483	0.8481743
38.5718	6071.77	16.92913	-90.41725	0.8603966
38.62579	6066.762	16.91591	-90.38054	0.8750511
38.67978	6061.728	16.86253	-90.34471	0.8917067
38.73376	6056.673	16.77715	-90.30976	0.9098532
38.78776	6051.607	16.67252	-90.27562	0.9289405
38.84175	6046.538	16.55696	-90.24217	0.9484085
38.89574	6041.467	16.44341	-90.20921	0.9677266
38.94973	6036.392	16.34435	-90.17646	0.9864051
39.00372	6031.308	16.26558	-90.14362	1.004012
39.0577	6026.216	16.21079	-90.11036	1.020217
39.11169	6021.12	16.17587	-90.07635	1.034815
39.16568	6016.022	16.14665	-90.04127	1.047695
39.21967	6010.936	16.10004	-90.0048	1.058875
39.27366	6005.879	16.01563	-89.96663	1.068465
39.32765	6000.877	15.88031	-89.92643	1.076669
39.38164	5995.941	15.70026	-89.88385	1.083798
39.43563	5991.075	15.4934	-89.83854	1.090215
39.48962	5986.267	15.27606	-89.79018	1.096358
39.54361	5981.498	15.05764	-89.73851	1.102663
39.5976	5976.746	14.84037	-89.68327	1.109519
39.65159	5971.991	14.61756	-89.62428	1.117205
39.70558	5967.227	14.37923	-89.56135	1.125846
39.75957	5962.455	14.11741	-89.49434	1.135391
39.81356	5957.681	13.82662	-89.42314	1.145583
39.86755	5952.906	13.50245	-89.34769	1.155955
39.92154	5948.137	13.14193	-89.26794	1.165886
39.97552	5943.379	12.75138	-89.18391	1.174591
40.02951	5938.643	12.34406	-89.09566	1.181181
40.0835	5933.931	11.93235	-89.00333	1.184705
40.13749	5929.245	11.52951	-88.90717	1.184204
40.19148	5924.577	11.1499	-88.80749	1.178785
40.24547	5919.919	10.80816	-88.70468	1.167665
40.29946	5915.264	10.51286	-88.59924	1.150246
40.35345	5910.603	10.26943	-88.49168	1.126163
40.40744	5905.93	10.08485	-88.38258	1.095297
40.46143	5901.239	9.961305	-88.27254	1.057809
40.51542	5896.529	9.890697	-88.1622	1.014125
40.56941	5891.795	9.86285	-88.05221	0.965001
40.6234	5887.033	9.867541	-87.94319	0.9114636
40.67739	5882.24	9.895926	-87.83578	0.8548408
40.73138	5877.416	9.940069	-87.73055	0.7967752
40.78537	5872.569	10.00324	-87.62805	0.7393039
40.83936	5867.711	10.08826	-87.5288	0.684909
40.89334	5862.85	10.20238	-87.43327	0.6364993
40.94733	5857.994	10.35354	-87.34184	0.5972798
41.00132	5853.156	10.54755	-87.25483	0.5704282
41.05531	5848.348	10.79477	-87.17245	0.5584751
41.1093	5843.572	11.10931	-87.09486	0.5626246
41.16329	5838.821	11.50281	-87.02213	0.5823072
41.21728	5834.09	11.97488	-86.95428	0.6154182
41.27127	5829.375	12.50594	-86.8912	0.6590112
41.32526	5824.677	13.05975	-86.83273	0.7099829
41.37925	5819.998	13.60161	-86.77855	0.7654826
41.43324	5815.346	14.10693	-86.72836	0.8230695
41.48723	5810.726	14.55711	-86.68173	0.8807092
41.54122	5806.141	14.94257	-86.63827	0.9366853
41.59521	5801.583	15.25954	-86.59751	0.9895509
41.6492	5797.042	15.50529	-86.55904	1.038078
41.70319	5792.5	15.6858	-86.5224	1.081246
41.75718	5787.942	15.81502	-86.48716	1.118191
41.81116	5783.357	15.9114	-86.4529	1.148192
41.86515	5778.743	15.98864	-86.41924	1.170682
41.91914	5774.108	16.05433	-86.38575	1.185296
41.97313	5769.472	16.11227	-86.35208	1.191868
42.02712	5764.844	16.15929	-86.31789	1.19054
42.08111	5760.233	16.18967	-86.28288	1.18179
42.1351	5755.644	16.19126	-86.2468	1.166433
42.18909	5751.074	16.1563	-86.20948	1.14565
42.24308	5746.52	16.08084	-86.17084	1.120976
42.29707	5741.979	15.96881	-86.13086	1.094265
42.35106	5737.445	15.82997	-86.08958	1.067656
42.40505	5732.912	15.68371	-86.04707	1.043445
42.45904	5728.374	15.54588	-86.00348	1.023978
42.51303	5723.827	15.42518	-85.95897	1.011438
42.56702	5719.264	15.32645	-85.91374	1.007607
42.62101	5714.674	15.25366	-85.86803	1.013648
42.675	5710.049	15.20843	-85.82208	1.029927
42.72898	5705.392	15.19724	-85.77612	1.055952
42.78297	5700.708	15.22159	-85.7304	1.090465
42.83696	5696.005	15.28081	-85.68519	1.131629
42.89095	5691.291	15.37431	-85.64073	1.177282
42.94494	5686.575	15.4918	-85.59729	1.225191
42.99893	5681.861	15.61484	-85.55505	1.27323
43.05292	5677.155	15.7255	-85.51418	1.319488
43.10691	5672.458	15.81202	-85.47479	1.362322
43.1609	5667.77	15.87232	-85.43695	1.400353
43.21489	5663.093	15.90897	-85.40066	1.432475
43.26888	5658.425	15.9216	-85.36587	1.457883
43.32287	5653.758	15.91403	-85.33247	1.476002
43.37686	5649.084	15.89362	-85.3003	1.486558
