T[Â°C]	350nm [counts / mm]	S.D.	First derivative	S.D. of first derivative
19.99944	6908.911	24.19184	-99.42979	2.928494
20.05342	6903.543	24.06163	-99.39339	2.854944
20.10741	6898.173	23.94273	-99.35696	2.781976
20.1614	6892.798	23.8361	-99.32051	2.709617
20.21539	6887.419	23.74147	-99.28403	2.637873
20.26938	6882.039	23.65825	-99.24754	2.566763
20.32337	6876.656	23.58576	-99.21103	2.4963
20.37736	6871.272	23.52333	-99.1745	2.426507
20.43135	6865.887	23.4694	-99.13797	2.357399
20.48534	6860.502	23.42274	-99.10144	2.288991
20.53933	6855.118	23.38132	-99.06493	2.221307
20.59332	6849.733	23.34203	-99.02842	2.15436
20.64731	6844.351	23.30288	-98.99193	2.088179
20.7013	6838.968	23.26252	-98.95547	2.022783
20.75529	6833.588	23.22017	-98.91906	1.958196
20.80928	6828.21	23.17636	-98.88268	1.89444
20.86327	6822.832	23.13567	-98.84635	1.831548
20.91726	6817.448	23.11146	-98.81008	1.769549
20.97124	6812.037	23.13597	-98.77387	1.708481
21.02523	6806.622	23.15727	-98.73773	1.648388
21.07922	6801.215	23.18798	-98.70167	1.589303
21.13321	6795.826	23.22812	-98.66569	1.531291
21.1872	6790.458	23.27349	-98.62978	1.474412
21.24119	6785.109	23.32129	-98.59398	1.418744
21.29518	6779.773	23.36458	-98.55827	1.364377
21.34917	6774.449	23.39095	-98.52264	1.311424
21.40316	6769.133	23.38503	-98.48711	1.260012
21.45715	6763.819	23.33511	-98.45168	1.210294
21.51114	6758.502	23.23997	-98.41631	1.16245
21.56513	6753.181	23.10641	-98.38103	1.116693
21.61912	6747.862	22.93789	-98.34582	1.073261
21.67311	6742.552	22.73408	-98.31065	1.032436
21.7271	6737.25	22.49616	-98.27552	0.9945042
21.78109	6731.955	22.22617	-98.2404	0.9598063
21.83508	6726.666	21.92447	-98.20527	0.928677
21.88906	6721.38	21.59616	-98.17009	0.9014734
21.94305	6716.097	21.25124	-98.13483	0.8785303
21.99704	6710.819	20.90484	-98.09946	0.8601463
22.05103	6705.549	20.57394	-98.06391	0.8465906
22.10502	6700.289	20.27316	-98.02814	0.8380347
22.15901	6695.037	20.00979	-97.9921	0.8345691
22.213	6689.794	19.78495	-97.9557	0.8361671
22.26699	6684.562	19.59466	-97.91889	0.8426387
22.32098	6679.336	19.43191	-97.88155	0.8536286
22.37497	6674.111	19.29103	-97.84357	0.8685237
22.42896	6668.877	19.16762	-97.80482	0.886364
22.48295	6663.632	19.05692	-97.76514	0.9057322
22.53694	6658.38	18.94916	-97.72441	0.9246667
22.59093	6653.119	18.84131	-97.68253	0.9408278
22.64492	6647.853	18.74114	-97.64029	0.9006781
22.69891	6642.583	18.65667	-97.59837	0.8574622
22.7529	6637.313	18.59842	-97.55707	0.8116248
22.80688	6632.048	18.57588	-97.5167	0.7636375
22.86087	6626.793	18.59382	-97.47756	0.7140397
22.91486	6621.548	18.65628	-97.43994	0.6634028
22.96885	6616.308	18.76346	-97.40408	0.6123438
23.02284	6611.066	18.91531	-97.37019	0.5615442
23.07683	6605.82	19.1082	-97.33844	0.5117168
23.13082	6600.566	19.33491	-97.30892	0.463614
23.18481	6595.299	19.58799	-97.2817	0.4180473
23.2388	6590.009	19.86284	-97.25674	0.375848
23.29279	6584.693	20.15104	-97.23393	0.337907
23.34678	6579.355	20.43946	-97.21311	0.3051198
23.40077	6574.002	20.71499	-97.19405	0.2783707
23.45476	6568.643	20.96809	-97.17648	0.2583792
23.50875	6563.285	21.19416	-97.16012	0.2456022
23.56274	6557.936	21.38971	-97.14466	0.2400609
23.61673	6552.604	21.54801	-97.12981	0.241374
23.67072	6547.296	21.66796	-97.1152	0.2488899
23.72471	6542.021	21.75018	-97.10049	0.2619367
23.7787	6536.785	21.79664	-97.08523	0.2800083
23.83269	6531.592	21.80481	-97.06898	0.302799
23.88667	6526.439	21.77185	-97.05134	0.3301882
23.94066	6521.32	21.69863	-97.03182	0.3621471
23.99465	6516.217	21.59278	-97.01003	0.3986549
24.04864	6511.11	21.47069	-96.98557	0.4396535
24.10263	6505.982	21.35489	-96.9581	0.4849823
24.15662	6500.827	21.26699	-96.92734	0.5343935
24.21061	6495.646	21.2232	-96.89305	0.587517
24.2646	6490.45	21.22621	-96.85503	0.6439045
24.31859	6485.249	21.26552	-96.81313	0.7030213
24.37258	6480.05	21.32734	-96.76732	0.7642732
24.42657	6474.861	21.39876	-96.71758	0.8270242
24.48056	6469.685	21.46677	-96.66403	0.8906318
24.53455	6464.522	21.52131	-96.60686	0.9544427
24.58854	6459.372	21.5556	-96.54632	1.017806
24.64253	6454.225	21.56753	-96.48278	1.080076
24.69652	6449.07	21.55263	-96.41666	1.140611
24.75051	6443.901	21.50708	-96.34844	1.198775
24.80449	6438.717	21.43475	-96.27863	1.253982
24.85848	6433.515	21.34246	-96.20774	1.305706
24.91247	6428.29	21.23887	-96.13627	1.353491
24.96646	6423.033	21.13248	-96.06471	1.39697
25.02045	6417.74	21.02804	-95.99356	1.435844
25.07444	6412.418	20.92148	-95.92326	1.469885
25.12843	6407.076	20.80768	-95.85428	1.498898
25.18242	6401.721	20.68341	-95.78699	1.522753
25.23641	6396.359	20.545	-95.72179	1.541385
25.2904	6390.996	20.38965	-95.65897	1.554751
25.34439	6385.639	20.20827	-95.5988	1.562898
25.39838	6380.294	19.98718	-95.54149	1.565921
25.45237	6374.972	19.71521	-95.48717	1.564007
25.50636	6369.675	19.38697	-95.43591	1.557388
25.56035	6364.402	19.00485	-95.38776	1.546399
25.61434	6359.155	18.58221	-95.3427	1.531402
25.66833	6353.928	18.14092	-95.30067	1.512778
25.72231	6348.716	17.70455	-95.26155	1.490888
25.7763	6343.515	17.29653	-95.22514	1.466046
25.83029	6338.328	16.93593	-95.19118	1.438453
25.88428	6333.165	16.63251	-95.15938	1.408199
25.93827	6328.038	16.3814	-95.12937	1.375224
25.99226	6322.947	16.17163	-95.10078	1.339373
26.04625	6317.891	15.99219	-95.07324	1.300417
26.10024	6312.863	15.83283	-95.04636	1.258099
26.15423	6307.855	15.68875	-95.01975	1.21212
26.20822	6302.862	15.5603	-94.99307	1.16222
26.26221	6297.882	15.44398	-94.96597	1.108146
26.3162	6292.918	15.33712	-94.93809	1.049723
26.37019	6287.977	15.24008	-94.90915	0.9868423
26.42418	6283.063	15.15692	-94.87887	0.9195423
26.47817	6278.174	15.09454	-94.84698	0.8480449
26.53216	6273.31	15.06011	-94.81329	0.7728026
26.58615	6268.458	15.06629	-94.77766	0.6945286
26.64013	6263.6	15.12104	-94.74004	0.6142781
26.69412	6258.72	15.22532	-94.70045	0.5335622
26.74811	6253.809	15.37202	-94.65899	0.4545481
26.8021	6248.864	15.54965	-94.61583	0.3805772
26.85609	6243.883	15.74595	-94.57117	0.3170466
26.91008	6238.866	15.95402	-94.52528	0.2724459
26.96407	6233.815	16.1707	-94.47843	0.2568547
27.01806	6228.734	16.38747	-94.43094	0.2742992
27.07205	6223.632	16.60029	-94.38313	0.3178622
27.12604	6218.512	16.80818	-94.33536	0.3768305
27.18003	6213.373	17.0093	-94.28796	0.4432596
27.23402	6208.215	17.2121	-94.24126	0.5124892
27.28801	6203.039	17.42681	-94.19563	0.5818335
27.342	6197.847	17.65925	-94.15138	0.6497059
27.39599	6192.643	17.90976	-94.10883	0.715066
27.44998	6187.439	18.16861	-94.06823	0.7771783
27.50397	6182.239	18.41859	-94.02976	0.835462
27.55795	6177.046	18.64131	-93.99354	0.8894426
27.61194	6171.863	18.82682	-93.95963	0.9386803
27.66593	6166.684	18.97219	-93.92804	0.9827706
27.71992	6161.503	19.08706	-93.89868	1.021347
27.77391	6156.314	19.18684	-93.87141	1.054123
27.8279	6151.117	19.2814	-93.846	1.080903
27.88189	6145.912	19.37593	-93.82221	1.101633
27.93588	6140.705	19.47157	-93.79975	1.116365
27.98987	6135.502	19.56835	-93.77831	1.125272
28.04386	6130.314	19.66391	-93.75757	1.128587
28.09785	6125.146	19.75329	-93.73719	1.126579
28.15184	6119.995	19.83422	-93.71683	1.119558
28.20583	6114.853	19.90477	-93.69611	1.107818
28.25982	6109.713	19.96288	-93.67468	1.091674
28.31381	6104.576	20.00884	-93.65221	1.07141
28.3678	6099.443	20.04498	-93.62836	1.0473
28.42179	6094.324	20.07299	-93.60282	1.019583
28.47577	6089.228	20.09752	-93.57529	0.9884648
28.52976	6084.16	20.12342	-93.54547	0.9541116
28.58375	6079.119	20.14742	-93.51308	0.9166461
28.63774	6074.1	20.16398	-93.47787	0.8761738
28.69173	6069.098	20.16879	-93.43962	0.8328118
28.74572	6064.109	20.15586	-93.39816	0.7866751
28.79971	6059.131	20.11697	-93.35342	0.7379546
28.8537	6054.162	20.05067	-93.30537	0.6869128
28.90769	6049.201	19.96186	-93.2541	0.6339093
28.96168	6044.247	19.8533	-93.19971	0.5794225
29.01567	6039.306	19.72665	-93.14238	0.5240244
29.06966	6034.378	19.58077	-93.08234	0.4684173
29.12365	6029.461	19.41105	-93.01985	0.4134084
29.17764	6024.554	19.21816	-92.95524	0.3599594
29.23163	6019.648	19.00538	-92.88888	0.3092072
29.28562	6014.739	18.77616	-92.82118	0.2625907
29.33961	6009.825	18.53853	-92.75263	0.2219273
29.3936	6004.901	18.31031	-92.68371	0.1895514
29.44759	5999.969	18.10706	-92.61493	0.1680143
29.50158	5995.025	17.92988	-92.54681	0.1589751
29.55556	5990.069	17.77526	-92.47983	0.1616264
29.60955	5985.101	17.63689	-92.41449	0.1727587
29.66354	5980.123	17.50802	-92.35123	0.1885891
29.71753	5975.138	17.3858	-92.29044	0.2062055
29.77152	5970.152	17.27377	-92.23249	0.2237917
29.82551	5965.166	17.17788	-92.17769	0.2403595
29.8795	5960.169	17.10253	-92.12633	0.255448
29.93349	5955.157	17.05199	-92.07867	0.2689232
29.98748	5950.132	17.02834	-92.03494	0.2808473
30.04147	5945.099	17.0348	-91.99534	0.2914135
30.09546	5940.064	17.07548	-91.95998	0.3008854
30.14945	5935.031	17.15108	-91.92895	0.3095553
30.20344	5930.007	17.25623	-91.90221	0.317729
30.25743	5924.997	17.38762	-91.87968	0.3256905
30.31142	5919.999	17.54116	-91.86121	0.3336503
30.36541	5915.012	17.70817	-91.84656	0.3417435
30.4194	5910.041	17.88265	-91.83546	0.3500129
30.47338	5905.086	18.06477	-91.82759	0.3583766
30.52737	5900.145	18.25487	-91.82257	0.366667
30.58136	5895.215	18.4519	-91.81998	0.3745783
30.63535	5890.295	18.65157	-91.81936	0.3817101
30.68934	5885.383	18.84266	-91.8202	0.387565
30.74333	5880.479	19.0099	-91.822	0.3915643
30.79732	5875.58	19.13638	-91.8243	0.3930647
30.85131	5870.681	19.21428	-91.82666	0.3914175
30.9053	5865.774	19.24352	-91.82869	0.3859837
30.95929	5860.857	19.23091	-91.83002	0.3762037
31.01328	5855.933	19.18651	-91.83029	0.3616309
31.06727	5851.004	19.12143	-91.82917	0.3419839
31.12126	5846.077	19.0483	-91.82634	0.317275
31.17525	5841.152	18.97414	-91.82151	0.2878878
31.22924	5836.236	18.90034	-91.81443	0.2548206
31.28323	5831.333	18.82366	-91.80492	0.2201489
31.33722	5826.443	18.74936	-91.79282	0.1879153
31.3912	5821.559	18.68589	-91.77807	0.1655078
31.44519	5816.679	18.6393	-91.7606	0.1630384
31.49918	5811.801	18.61629	-91.74042	0.185993
31.55317	5806.922	18.62247	-91.71761	0.2299025
31.60716	5802.035	18.65785	-91.69225	0.2870783
31.66115	5797.135	18.71927	-91.66451	0.3519331
31.71514	5792.218	18.80278	-91.63451	0.4210663
31.76913	5787.282	18.90256	-91.60244	0.4923128
31.82312	5782.325	19.0124	-91.56852	0.5641702
31.87711	5777.352	19.13261	-91.533	0.6355453
31.9311	5772.363	19.25887	-91.49617	0.7056128
31.98509	5767.365	19.38872	-91.45836	0.7737422
32.03908	5762.361	19.52012	-91.41989	0.8394464
32.09307	5757.348	19.65092	-91.38109	0.9023809
32.14706	5752.324	19.78346	-91.34224	0.9623672
32.20105	5747.292	19.91452	-91.3036	1.019354
32.25504	5742.248	20.03816	-91.26538	1.073407
32.30902	5737.195	20.148	-91.22772	1.124687
32.36301	5732.14	20.23826	-91.19073	1.1734
32.417	5727.087	20.29909	-91.15441	1.219739
32.47099	5722.037	20.32263	-91.11877	1.263872
32.52498	5716.983	20.30592	-91.08373	1.305912
32.57897	5711.919	20.25128	-91.04916	1.345949
32.63296	5706.843	20.15736	-91.01491	1.384017
32.68695	5701.757	20.01885	-90.98077	1.420091
32.74094	5696.672	19.83177	-90.94653	1.454148
32.79493	5691.606	19.58944	-90.912	1.486123
32.84892	5686.576	19.28487	-90.87695	1.515963
32.90291	5681.592	18.918	-90.84119	1.543586
32.9569	5676.66	18.49241	-90.80447	1.568899
33.01089	5671.779	18.0199	-90.76665	1.591791
33.06488	5666.945	17.52199	-90.72752	1.612098
33.11887	5662.146	17.02094	-90.68693	1.629631
33.17286	5657.375	16.53799	-90.64471	1.64415
33.22684	5652.627	16.08749	-90.60078	1.655407
33.28083	5647.89	15.67721	-90.55505	1.663146
33.33482	5643.149	15.3056	-90.50745	1.667131
33.38881	5638.393	14.96975	-90.45796	1.667153
33.4428	5633.617	14.67283	-90.40656	1.663036
33.49679	5628.824	14.41803	-90.35328	1.654641
33.55078	5624.015	14.2057	-90.29825	1.641899
33.60477	5619.197	14.03692	-90.24158	1.624792
33.65876	5614.384	13.91335	-90.18347	1.603398
33.71275	5609.581	13.83428	-90.1241	1.577873
33.76674	5604.791	13.797	-90.06371	1.548454
33.82073	5600.01	13.79907	-90.00256	1.515473
33.87472	5595.234	13.83852	-89.94093	1.479357
33.92871	5590.461	13.91524	-89.87912	1.440614
33.9827	5585.691	14.02691	-89.81742	1.399815
34.03669	5580.916	14.16731	-89.75613	1.357543
34.09068	5576.124	14.336	-89.6955	1.314411
34.14466	5571.304	14.52839	-89.63577	1.271018
34.19865	5566.451	14.7329	-89.57716	1.227951
34.25264	5561.564	14.93717	-89.51984	1.185712
34.30663	5556.653	15.13367	-89.46394	1.14472
34.36062	5551.729	15.31107	-89.40963	1.105301
34.41461	5546.803	15.45672	-89.35701	1.067649
34.4686	5541.885	15.56351	-89.30616	1.031892
34.52259	5536.979	15.63306	-89.2571	0.9980533
34.57658	5532.095	15.67451	-89.20979	0.9661433
34.63057	5527.239	15.69673	-89.16418	0.9361212
34.68456	5522.409	15.70884	-89.12009	0.9079357
34.73855	5517.602	15.71585	-89.07737	0.8815238
34.79254	5512.816	15.7183	-89.03576	0.8568312
34.84653	5508.045	15.7133	-88.99495	0.8338621
34.90052	5503.278	15.69813	-88.95462	0.8127112
34.95451	5498.502	15.67221	-88.91438	0.7935597
35.0085	5493.708	15.64006	-88.87381	0.77669
35.06248	5488.895	15.61245	-88.83249	0.7624996
35.11647	5484.068	15.59637	-88.78997	0.7514644
35.17046	5479.236	15.60181	-88.74585	0.7440891
35.22445	5474.406	15.64014	-88.69971	0.7408464
35.27844	5469.579	15.7119	-88.6512	0.7421118
35.33243	5464.759	15.80798	-88.60001	0.7481138
35.38642	5459.955	15.91844	-88.54588	0.7589158
35.44041	5455.172	16.03462	-88.48859	0.7744009
35.4944	5450.411	16.14824	-88.42802	0.7942978
35.54839	5445.667	16.25333	-88.3641	0.8181658
35.60238	5440.934	16.34526	-88.29682	0.8454425
35.65637	5436.207	16.42418	-88.22624	0.8754785
35.71036	5431.481	16.49529	-88.15248	0.907547
35.76435	5426.748	16.56239	-88.07569	0.9408858
35.81834	5422	16.62584	-87.99607	0.9747257
35.87233	5417.238	16.68435	-87.91384	1.008337
35.92632	5412.47	16.7347	-87.82926	1.041059
35.9803	5407.699	16.76745	-87.74264	1.072337
36.03429	5402.918	16.77316	-87.65429	1.101717
36.08828	5398.122	16.74049	-87.56461	1.128857
36.14227	5393.309	16.66126	-87.47399	1.153522
36.19626	5388.484	16.52958	-87.38286	1.175571
36.25025	5383.66	16.34715	-87.29166	1.194942
36.30424	5378.847	16.12101	-87.20087	1.211603
36.35823	5374.051	15.85669	-87.11092	1.225548
36.41222	5369.272	15.55482	-87.02228	1.236791
36.46621	5364.508	15.21661	-86.93536	1.24538
36.5202	5359.758	14.85157	-86.85056	1.251331
36.57419	5355.023	14.47263	-86.76822	1.254666
36.62818	5350.303	14.09062	-86.68861	1.255386
36.68217	5345.595	13.71813	-86.61195	1.253476
36.73616	5340.898	13.36051	-86.5384	1.248876
36.79015	5336.212	13.02255	-86.46805	1.241471
36.84414	5331.536	12.71072	-86.40092	1.231112
36.89812	5326.86	12.42421	-86.33699	1.217639
36.95211	5322.179	12.16263	-86.27614	1.200908
37.0061	5317.495	11.92413	-86.21819	1.180823
37.06009	5312.817	11.70576	-86.16293	1.157382
37.11408	5308.155	11.50717	-86.11009	1.130667
37.16807	5303.517	11.33019	-86.05938	1.100847
37.22206	5298.905	11.17881	-86.01048	1.068154
37.27605	5294.319	11.06113	-85.96309	1.032885
37.33004	5289.762	10.98446	-85.91692	0.9954032
37.38403	5285.234	10.95456	-85.87172	0.9561103
37.43802	5280.732	10.97295	-85.82728	0.9155011
37.49201	5276.252	11.03657	-85.7834	0.8741186
37.546	5271.787	11.13734	-85.73997	0.832554
37.59999	5267.33	11.26427	-85.69688	0.7914531
37.65398	5262.878	11.40357	-85.65412	0.7514858
37.70797	5258.424	11.54713	-85.61166	0.7133387
37.76196	5253.963	11.68876	-85.56949	0.6777018
37.81594	5249.494	11.82201	-85.52765	0.6452017
37.86993	5245.018	11.94437	-85.48618	0.6163961
37.92392	5240.539	12.05237	-85.44513	0.5917527
37.97791	5236.056	12.14783	-85.4046	0.5716451
38.0319	5231.566	12.23072	-85.36471	0.5563173
38.08589	5227.064	12.30178	-85.32557	0.5458549
38.13988	5222.551	12.36632	-85.28736	0.5401632
38.19387	5218.026	12.4298	-85.25029	0.5389247
38.24786	5213.491	12.49992	-85.21459	0.5416606
38.30185	5208.948	12.57865	-85.18049	0.5477321
38.35584	5204.397	12.66313	-85.14822	0.5564133
38.40983	5199.832	12.75024	-85.118	0.5669373
38.46382	5195.249	12.83759	-85.09003	0.5785599
38.51781	5190.645	12.92413	-85.06449	0.5905967
38.5718	5186.014	13.00664	-85.04147	0.602412
38.62579	5181.352	13.08745	-85.02104	0.6134915
38.67978	5176.654	13.16468	-85.00326	0.6234114
38.73376	5171.921	13.23349	-84.98808	0.6318921
38.78776	5167.16	13.29548	-84.97543	0.6387177
38.84175	5162.382	13.35434	-84.96519	0.6437601
38.89574	5157.595	13.41584	-84.9571	0.6469115
38.94973	5152.812	13.48375	-84.9509	0.6480854
39.00372	5148.041	13.55536	-84.94625	0.6472082
39.0577	5143.288	13.6301	-84.94279	0.644236
39.11169	5138.552	13.70867	-84.94011	0.6391426
39.16568	5133.835	13.78549	-84.93784	0.6319566
39.21967	5129.139	13.85209	-84.93557	0.6227598
39.27366	5124.467	13.90036	-84.93288	0.6117105
39.32765	5119.826	13.92481	-84.92933	0.5990825
39.38164	5115.218	13.92283	-84.9245	0.5852755
39.43563	5110.644	13.89791	-84.91798	0.5708874
39.48962	5106.096	13.85296	-84.90936	0.5567183
39.54361	5101.564	13.78395	-84.89831	0.5437592
39.5976	5097.041	13.68612	-84.88453	0.5331628
39.65159	5092.518	13.55302	-84.86778	0.5261074
39.70558	5087.995	13.38318	-84.84786	0.523676
39.75957	5083.476	13.17646	-84.82462	0.5267179
39.81356	5078.963	12.93615	-84.79798	0.5356733
39.86755	5074.459	12.67163	-84.76793	0.5505322
39.92154	5069.96	12.39032	-84.73447	0.5708246
39.97552	5065.466	12.09827	-84.69769	0.5957009
40.02951	5060.971	11.79517	-84.6577	0.6240752
40.0835	5056.47	11.48717	-84.61467	0.6547152
40.13749	5051.961	11.17889	-84.56882	0.6863634
40.19148	5047.442	10.87652	-84.52046	0.7178065
40.24547	5042.91	10.58695	-84.46992	0.7479588
40.29946	5038.359	10.31663	-84.41757	0.7758836
40.35345	5033.789	10.07347	-84.36385	0.8008301
40.40744	5029.199	9.868034	-84.30919	0.8222483
40.46143	5024.596	9.702662	-84.25403	0.8397568
40.51542	5019.991	9.578321	-84.19883	0.8531179
40.56941	5015.392	9.491986	-84.144	0.8622655
40.6234	5010.803	9.43641	-84.08997	0.8672155
40.67739	5006.224	9.401305	-84.03713	0.868076
40.73138	5001.647	9.38012	-83.98583	0.8650091
40.78537	4997.066	9.37176	-83.93637	0.8582326
40.83936	4992.478	9.375259	-83.88902	0.8480054
40.89334	4987.883	9.395654	-83.84397	0.8346691
40.94733	4983.282	9.438881	-83.80134	0.8186148
41.00132	4978.68	9.510555	-83.76118	0.8002853
41.05531	4974.083	9.619385	-83.7235	0.780161
41.1093	4969.495	9.776392	-83.68822	0.7587738
41.16329	4964.92	9.989938	-83.65524	0.7366894
41.21728	4960.363	10.26194	-83.62436	0.7144903
41.27127	4955.831	10.58436	-83.59536	0.6927472
41.32526	4951.331	10.93827	-83.56802	0.6720474
41.37925	4946.868	11.30575	-83.54207	0.6528822
41.43324	4942.441	11.66654	-83.51725	0.6356378
41.48723	4938.046	11.99916	-83.49331	0.6205049
41.54122	4933.68	12.29127	-83.47	0.6074277
41.59521	4929.331	12.5346	-83.4471	0.5960563
41.6492	4924.985	12.72374	-83.42436	0.5857688
41.70319	4920.624	12.85727	-83.40159	0.5757203
41.75718	4916.236	12.93683	-83.37856	0.564926
41.81116	4911.816	12.9678	-83.35509	0.5523278
41.86515	4907.365	12.95678	-83.33101	0.5369019
41.91914	4902.889	12.91474	-83.30611	0.5177093
41.97313	4898.398	12.84496	-83.28023	0.4939343
42.02712	4893.897	12.75163	-83.25318	0.4649586
42.08111	4889.395	12.64019	-83.22485	0.4304006
42.1351	4884.897	12.51236	-83.19509	0.3901486
42.18909	4880.411	12.37368	-83.16386	0.3444923
42.24308	4875.941	12.23072	-83.13117	0.2942681
42.29707	4871.488	12.09256	-83.09704	0.2412364
42.35106	4867.046	11.97083	-83.06155	0.1891532
42.40505	4862.606	11.87417	-83.02478	0.1466955
42.45904	4858.163	11.8076	-82.98686	0.1314379
42.51303	4853.712	11.77103	-82.94787	0.1562816
42.56702	4849.249	11.75806	-82.90792	0.2091224
42.62101	4844.765	11.76061	-82.86708	0.2743654
42.675	4840.257	11.77479	-82.82544	0.3441456
42.72898	4835.725	11.80661	-82.78308	0.4146121
42.78297	4831.167	11.86243	-82.74007	0.4835117
42.83696	4826.592	11.94822	-82.69649	0.5492498
42.89095	4822.008	12.06685	-82.65238	0.6105953
42.94494	4817.424	12.21201	-82.6078	0.6665306
42.99893	4812.849	12.37163	-82.56276	0.7162424
43.05292	4808.291	12.53232	-82.51724	0.7591032
43.10691	4803.758	12.68625	-82.47118	0.7946772
43.1609	4799.25	12.82853	-82.42447	0.822745
43.21489	4794.768	12.95689	-82.37697	0.8433217
