T[Â°C]	330nm [counts / mm]	S.D.
20.00037	4972.466	62.4123
20.05447	4976.463	61.24146
20.10858	4969.48	69.50517
20.16269	4966.74	67.30206
20.21679	4960.74	74.4755
20.2709	4960.028	68.56536
20.325	4950.087	63.28373
20.37911	4951.145	61.64289
20.43321	4952.094	62.94964
20.48732	4943.038	67.39429
20.54143	4938.279	66.93434
20.59553	4935.507	66.33945
20.64964	4936.385	68.22346
20.70374	4926.169	73.61559
20.75785	4929.522	71.0024
20.81195	4914.198	67.55148
20.86606	4915.324	71.50795
20.92017	4909.197	67.12433
20.97427	4902.558	68.96293
21.02838	4904.469	63.75534
21.08248	4904.139	65.77622
21.13659	4899.401	69.7351
21.19069	4900.836	66.53488
21.2448	4894.075	65.8708
21.29891	4885.386	66.94368
21.35301	4884.624	62.02412
21.40712	4881.803	65.99198
21.46123	4873.935	68.38652
21.51533	4875.001	61.92032
21.56944	4866.897	66.53526
21.62354	4866.369	69.26124
21.67765	4856.344	65.2719
21.73175	4859.123	68.27412
21.78586	4855.235	74.1968
21.83997	4850.494	70.59302
21.89407	4847.54	69.42807
21.94818	4839.222	68.97852
22.00228	4831.271	68.73424
22.05639	4835.832	62.36346
22.11049	4823.813	72.26877
22.1646	4828.6	67.55652
22.21871	4820.697	60.88612
22.27281	4823.378	58.48152
22.32692	4813.634	66.55664
22.38102	4809.526	68.32029
22.43513	4811.887	63.86897
22.48923	4804.604	64.67381
22.54334	4802.125	76.00626
22.59745	4800.337	58.47586
22.65155	4793.106	66.79924
22.70566	4790.49	60.24797
22.75976	4784.38	60.76511
22.81387	4780.942	62.66666
22.86798	4778.418	61.13468
22.92208	4777.989	62.01353
22.97619	4767.547	66.36273
23.03029	4770.682	69.79095
23.0844	4760.511	59.87719
23.1385	4763.216	60.7313
23.19261	4760.769	66.52272
23.24672	4758.642	60.15082
23.30082	4751.743	63.61138
23.35493	4746.424	66.0859
23.40903	4742.033	66.39787
23.46314	4742.464	63.27552
23.51724	4735.48	61.44439
23.57135	4730.695	60.08862
23.62546	4726.228	62.57431
23.67956	4725.457	62.46439
23.73367	4721.828	60.17993
23.78777	4711.477	61.5439
23.84188	4709.55	63.36387
23.89598	4709.571	64.41533
23.95009	4706.302	64.67661
24.0042	4704.846	68.92754
24.0583	4701.305	68.03619
24.11241	4696.708	65.2971
24.16652	4690.731	62.71806
24.22062	4687.59	64.742
24.27473	4683.973	65.94064
24.32883	4682.481	66.93884
24.38294	4678.594	63.13724
24.43704	4673.473	57.62634
24.49115	4670.882	60.57496
24.54526	4664.141	60.42999
24.59936	4658.581	61.16275
24.65347	4661.581	68.14977
24.70757	4660.145	69.74747
24.76168	4653.338	69.67308
24.81578	4652.245	69.03059
24.86989	4646.763	63.06055
24.924	4642.512	62.32911
24.9781	4642.412	63.36778
25.03221	4639.042	63.40672
25.08631	4636.079	69.44399
25.14042	4629.831	70.77137
25.19452	4626.194	64.34991
25.24863	4618.623	66.3968
25.30274	4608.706	67.02698
25.35684	4609.723	65.48704
25.41095	4610.771	58.93645
25.46505	4606.364	60.22681
25.51916	4604.783	60.43166
25.57327	4596.242	62.56117
25.62737	4591.441	64.94997
25.68148	4592.761	60.96703
25.73558	4587.777	67.83153
25.78969	4582.557	68.12296
25.84379	4578.95	62.13025
25.8979	4576.253	67.17403
25.95201	4574.664	62.33108
26.00611	4568.725	60.20288
26.06022	4566.092	63.49402
26.11432	4563.651	61.77381
26.16843	4552.866	61.84965
26.22253	4552.474	60.31112
26.27664	4553.548	58.38937
26.33075	4544.356	56.03289
26.38485	4551.618	60.67711
26.43896	4546.854	55.34115
26.49306	4541.611	53.44154
26.54717	4541.115	53.83603
26.60127	4527.591	52.07214
26.65538	4531.528	54.99553
26.70949	4519.641	59.9127
26.76359	4519.3	60.7552
26.8177	4515.562	63.3391
26.87181	4515.485	62.71167
26.92591	4509.014	60.32748
26.98002	4507.202	66.28772
27.03412	4499.805	60.06838
27.08823	4503.137	61.20139
27.14233	4500.626	63.04208
27.19644	4493.659	63.62644
27.25055	4495.568	60.13487
27.30465	4483.718	63.90904
27.35876	4482.271	64.52
27.41286	4480.253	65.22518
27.46697	4479.697	68.39209
27.52107	4474.107	60.25702
27.57518	4468.386	62.48452
27.62929	4467.225	64.71109
27.68339	4461.845	59.86865
27.7375	4461.07	60.81824
27.7916	4456.38	62.01744
27.84571	4447.926	63.37092
27.89981	4445.621	63.00317
27.95392	4442.535	56.29357
28.00803	4438.904	56.11844
28.06213	4439.581	62.35691
28.11624	4436.633	62.38884
28.17034	4434.788	61.32585
28.22445	4426.201	61.66382
28.27855	4422.219	59.81429
28.33266	4422.419	53.95517
28.38677	4419.858	52.58979
28.44087	4415.331	60.43941
28.49498	4408.787	59.52077
28.54908	4407.034	56.84351
28.60319	4407.263	55.80507
28.6573	4402.813	56.64
28.7114	4402.473	63.85844
28.76551	4398.912	61.69783
28.81961	4388.042	62.57085
28.87372	4382.992	64.32269
28.92782	4382.452	59.46915
28.98193	4381.075	62.38788
29.03604	4378.582	63.39845
29.09014	4373.098	63.09638
29.14425	4366.778	60.68543
29.19835	4368.869	55.52955
29.25246	4361.102	59.7026
29.30656	4358.803	58.44848
29.36067	4358.426	59.25608
29.41478	4354.363	56.88002
29.46888	4353.199	58.02674
29.52299	4347.209	66.31783
29.57709	4347.749	67.9046
29.6312	4336.819	63.09768
29.68531	4331.307	60.50006
29.73941	4327.72	60.63284
29.79352	4333.322	64.18558
29.84762	4327.338	59.77717
29.90173	4320.724	54.87096
29.95584	4315.148	60.02967
30.00994	4320.96	50.38121
30.06405	4314.047	54.64239
30.11815	4310.807	61.30847
30.17226	4305.437	61.09388
30.22636	4297.338	50.47261
30.28047	4302.737	51.9281
30.33458	4293.535	62.13211
30.38868	4291.507	58.29562
30.44279	4294.408	57.17146
30.49689	4286.629	48.86318
30.551	4283.127	60.67811
30.6051	4281.715	58.23637
30.65921	4274.6	47.89186
30.71332	4273.914	56.89936
30.76742	4274.475	62.89458
30.82153	4259.993	59.68254
30.87563	4259.594	66.43969
30.92974	4255.029	56.56168
30.98384	4252.99	65.93857
31.03795	4251.557	60.18951
31.09206	4249.124	56.78312
31.14616	4247.494	62.70941
31.20027	4245.151	59.01211
31.25437	4242.728	62.79185
31.30848	4237.742	54.66175
31.36259	4230.397	63.04489
31.41669	4230.754	55.05566
31.4708	4222.804	54.56781
31.5249	4222.868	60.95667
31.57901	4216.228	60.70148
31.63311	4214.36	60.68029
31.68722	4214.187	53.9305
31.74133	4207.77	58.90718
31.79543	4202.692	54.93497
31.84954	4205.377	52.0804
31.90364	4198.317	55.99468
31.95775	4197.857	61.41889
32.01186	4194.478	56.71416
32.06596	4191.364	53.93193
32.12007	4187.319	56.40011
32.17417	4183.074	55.69837
32.22828	4180.2	57.59992
32.28238	4176.558	56.44604
32.33649	4171.191	54.51189
32.39059	4166.92	57.88914
32.4447	4165.829	59.40493
32.49881	4161.94	59.49047
32.55291	4156.186	57.33226
32.60702	4155.106	54.87904
32.66113	4152.925	59.23447
32.71523	4146.335	60.73055
32.76934	4144.501	55.14771
32.82344	4145.298	56.45285
32.87755	4142.525	58.11837
32.93165	4137.279	53.79359
32.98576	4135.238	54.0311
33.03986	4129.884	58.59601
33.09397	4126.058	61.43803
33.14808	4119.514	59.71425
33.20218	4115.105	58.6312
33.25629	4117.485	56.89026
33.31039	4115.135	57.06652
33.3645	4106.929	58.79626
33.41861	4110.618	55.44155
33.47271	4103.802	57.32919
33.52682	4103.948	47.05235
33.58092	4100.615	53.58611
33.63503	4098.506	48.43188
33.68913	4096.885	52.61346
33.74324	4085.249	53.43703
33.79735	4088.576	50.22104
33.85145	4078.954	59.06469
33.90556	4070.276	55.97038
33.95966	4075.244	55.9893
34.01377	4073.898	53.70327
34.06787	4066.792	54.32861
34.12198	4069.191	59.16458
34.17609	4053.021	50.48963
34.23019	4061.566	60.24165
34.2843	4057.103	59.05524
34.33841	4048.035	57.63748
34.39251	4053.093	55.9212
34.44662	4045.997	57.92214
34.50072	4037.453	57.42446
34.55483	4037.325	56.62442
34.60893	4026.363	60.7303
34.66304	4031.567	56.57763
34.71714	4026.05	52.07956
34.77125	4023.386	53.89359
34.82536	4020.376	57.12949
34.87946	4019.928	57.17704
34.93357	4016.558	46.69609
34.98767	4011.058	47.64961
35.04178	4013.495	50.33802
35.09589	4009.254	53.86457
35.14999	4004.869	52.33145
35.2041	4000.058	55.59135
35.2582	3997.87	51.38997
35.31231	3990.398	51.73536
35.36641	3992.373	55.03428
35.42052	3988.959	54.27994
35.47462	3987.583	51.45266
35.52873	3986.811	51.48698
35.58284	3979.491	53.16858
35.63694	3974.564	57.45576
35.69105	3970.923	56.32648
35.74516	3963.385	55.76962
35.79926	3962.645	58.10844
35.85337	3960.506	56.02517
35.90747	3959.158	51.57223
35.96158	3955.819	52.25313
36.01568	3951.795	53.11062
36.06979	3947.54	54.02489
36.12389	3943.789	54.75044
36.178	3940.945	50.80221
36.23211	3938.897	52.88961
36.28621	3938.432	57.75835
36.34032	3935.26	58.44023
36.39442	3931.125	54.17568
36.44853	3927.437	53.58266
36.50264	3921.414	55.34392
36.55674	3918.626	53.48167
36.61085	3917.973	52.73967
36.66496	3912.631	49.23228
36.71906	3910.237	52.17445
36.77317	3908.277	51.4973
36.82727	3908.07	43.95039
36.88138	3900.44	42.97859
36.93548	3898.926	47.15267
36.98959	3900.325	46.03705
37.04369	3894.113	46.771
37.0978	3890.063	49.58524
37.15191	3886.834	52.20308
37.20601	3878.772	48.94647
37.26012	3884.522	47.55465
37.31422	3880.656	51.8569
37.36833	3876.941	53.77831
37.42244	3871.777	55.93875
37.47654	3871.39	53.58421
37.53065	3860.255	50.71272
37.58475	3865.008	57.41272
37.63886	3863.315	60.88704
37.69296	3856.692	50.64823
37.74707	3847.5	48.92715
37.80117	3850.635	55.52763
37.85528	3843.03	53.6105
37.90939	3845.806	52.49772
37.96349	3842.563	54.47557
38.0176	3842.115	48.84218
38.0717	3839.483	55.51597
38.12581	3833.33	52.55358
38.17992	3826.314	51.16325
38.23402	3826.357	51.17057
38.28813	3824.364	50.72844
38.34223	3821.82	51.33923
38.39634	3815.633	49.88965
38.45044	3812.046	49.81356
38.50455	3807.643	51.53557
38.55865	3809.777	50.12884
38.61276	3805.619	50.50119
38.66687	3799.825	50.23388
38.72097	3794.054	54.89004
38.77508	3794.502	53.81338
38.82919	3794.067	47.6959
38.88329	3794.205	48.95242
38.9374	3789.717	46.21933
38.9915	3788.155	44.28446
39.04561	3780.41	51.61041
39.09971	3774.059	47.70764
39.15382	3769.29	48.30069
39.20793	3770.789	50.66524
39.26203	3764.209	55.36654
39.31614	3762.567	54.31729
39.37024	3762.826	50.03473
39.42435	3762.975	46.72194
39.47845	3754.32	50.83292
39.53256	3749.677	54.40677
39.58667	3747.063	51.97841
39.64077	3745.429	49.26783
39.69488	3740.138	48.23741
39.74899	3738.221	50.64962
39.80309	3737.116	54.74246
39.8572	3734.589	58.10046
39.9113	3728.563	53.57629
39.96541	3723.788	51.44343
40.01951	3721.208	48.91757
40.07362	3718.98	45.31147
40.12772	3717.293	46.86021
40.18183	3713.098	46.59948
40.23594	3709.716	48.13136
40.29004	3704.978	46.22308
40.34415	3706.417	48.31556
40.39825	3698.457	53.3069
40.45236	3699.736	42.33249
40.50647	3692.053	51.35675
40.56057	3694.549	49.03967
40.61468	3697.375	47.77646
40.66878	3692.122	53.18315
40.72289	3685.891	51.93036
40.77699	3684.836	52.20237
40.8311	3677.611	45.66297
40.8852	3678.623	45.4337
40.93931	3667.99	43.85631
40.99342	3671.99	47.68472
41.04752	3665.003	47.10193
41.10163	3669.919	48.73489
41.15574	3658.374	48.01172
41.20984	3657.438	52.64113
41.26395	3648.138	45.59669
41.31805	3655.401	48.11004
41.37216	3649.312	47.79708
41.42626	3647.09	48.84098
41.48037	3641.417	47.96154
41.53447	3647.174	45.70092
41.58858	3639.602	50.50069
41.64268	3635.71	48.13663
41.69679	3635.297	51.03715
41.7509	3635.317	55.93582
41.805	3625.544	49.14635
41.85911	3625.469	47.82524
41.91322	3621.978	45.39819
41.96732	3618.045	43.69077
42.02143	3617.474	43.34779
42.07553	3615.108	39.60231
42.12964	3609.307	43.60701
42.18375	3608.3	46.87328
42.23785	3602.114	46.48138
42.29196	3602.307	48.38049
42.34606	3597.937	51.99875
42.40017	3595.598	51.97231
42.45427	3592.981	52.67296
42.50838	3588.29	48.6351
42.56248	3581.461	47.92027
42.61659	3578.704	45.96632
42.6707	3575.908	45.80372
42.7248	3572.433	51.31503
42.77891	3572.372	53.43724
42.83302	3569.779	53.69897
42.88712	3568.841	52.2849
42.94123	3566.108	47.49293
42.99533	3560.866	44.40419
43.04944	3558.211	44.87774
43.10354	3556.955	44.39791
43.15765	3553.69	48.58148
43.21175	3547.944	49.60034
43.26586	3544.015	48.62807
43.31997	3541.516	46.59834
43.37407	3537.158	48.85686
43.42818	3537.144	49.29734
43.48228	3535.567	45.12483
43.53639	3534.347	42.69466
43.5905	3530.124	44.80728
43.6446	3525.487	44.6365
43.69871	3523.521	46.11979
43.75281	3521.284	45.61135
43.80692	3512.182	43.86048
43.86102	3517.893	41.73439
43.91513	3513.75	44.97433
43.96923	3510.819	41.34242
44.02334	3505.556	44.77362
44.07745	3506.362	46.97512
44.13155	3502.773	42.65284
44.18566	3501.532	39.07601
44.23977	3495.091	49.258
44.29387	3497.302	50.04013
44.34798	3493.48	47.47157
44.40208	3490.833	48.9181
44.45619	3482.687	49.18084
44.51029	3480.889	47.94651
44.5644	3478.97	51.63732
44.6185	3478.825	46.18282
44.67261	3460.687	46.71637
44.72672	3475.873	51.30355
44.78082	3465.183	43.87476
44.83493	3465.012	49.28954
44.88903	3456.982	47.77612
44.94314	3456.782	50.26202
44.99725	3455.249	49.43345
45.05135	3456.298	45.47771
45.10546	3443.545	47.6689
45.15956	3449.512	48.10868
45.21367	3445.168	47.31738
45.26778	3444.31	46.5783
45.32188	3437.295	40.65661
45.37599	3440.144	48.46264
45.43009	3430.73	44.91399
45.4842	3429.049	50.88017
45.5383	3423.05	51.79589
45.59241	3430.366	42.93374
45.64651	3418.146	41.73866
45.70062	3417.147	50.0615
45.75473	3413.469	48.42109
45.80883	3417.56	52.66439
45.86294	3407.806	47.68425
45.91705	3410.84	49.01007
45.97115	3406.221	42.66096
46.02526	3404.396	41.54167
46.07936	3399.634	42.12803
46.13347	3398.33	37.665
46.18757	3393.918	36.78684
46.24168	3393.563	40.82024
46.29578	3386.107	45.95951
46.34989	3384.892	38.93913
46.404	3378.633	41.96912
46.4581	3382.063	49.15393
46.51221	3372.271	44.66008
46.56631	3372.073	44.63369
46.62042	3369.695	45.51772
46.67453	3370.12	43.92333
46.72863	3364.396	39.42519
46.78274	3360.483	43.35725
46.83684	3358.84	47.47092
46.89095	3360.725	44.69807
46.94505	3357.479	46.00863
46.99916	3355.766	48.03935
47.05326	3348.883	49.19719
47.10737	3349.84	46.77136
47.16148	3345.742	42.96912
47.21558	3342.037	41.58953
47.26969	3337.59	40.59509
47.3238	3335.096	38.63301
47.3779	3330.289	41.26537
47.43201	3328.71	38.4868
47.48611	3326.981	40.07016
47.54022	3324.104	43.3939
47.59433	3319.436	42.19933
47.64843	3317.216	43.23765
47.70254	3316.731	43.75145
47.75664	3312.806	41.48227
47.81075	3312.168	42.70059
47.86485	3309.694	46.91884
47.91896	3306.413	46.1358
47.97306	3304.128	43.43063
48.02717	3301.045	44.16204
48.08128	3295.641	44.46498
48.13538	3294.686	42.47755
48.18949	3292.563	42.80446
48.2436	3289.629	44.97627
48.2977	3284.543	42.05805
48.35181	3286.782	39.17381
48.40591	3279.877	42.29961
48.46002	3277.779	43.51161
48.51412	3273.387	41.45455
48.56823	3273.355	46.36811
48.62233	3264.322	45.72301
48.67644	3270.574	43.22195
48.73055	3264.791	41.77328
48.78465	3261.345	42.31262
48.83876	3259.108	45.55496
48.89286	3255.003	45.08718
48.94697	3256.446	45.54567
49.00108	3253.8	41.57536
49.05518	3246.124	44.18573
49.10929	3246.836	45.35698
49.16339	3241.133	45.85918
49.2175	3243.813	39.38847
49.2716	3233.162	41.74326
49.32571	3236.636	43.55838
49.37981	3230.283	46.86586
49.43392	3235.433	44.98527
49.48803	3227.817	46.66857
49.54213	3229.714	42.44171
49.59624	3217.946	39.45466
49.65034	3223.087	45.65505
49.70445	3213.336	47.61187
49.75856	3220.203	44.29515
49.81266	3215.653	41.75618
49.86677	3210.143	40.79713
49.92087	3199.668	45.75394
49.97498	3205.279	39.08527
50.02908	3197.586	42.89787
50.08319	3203.208	40.24405
50.13729	3191.467	38.62349
50.1914	3190.674	47.48712
50.24551	3185.691	41.17578
50.29961	3186.569	49.75097
50.35372	3183.142	40.63423
50.40783	3185.458	40.03358
50.46193	3176.651	37.7791
50.51604	3181.658	46.18744
50.57014	3171.107	40.82387
50.62425	3175.448	37.77146
50.67836	3166.921	40.47495
50.73246	3167.348	46.35407
50.78657	3165.652	43.03848
50.84067	3164.717	44.3885
50.89478	3154.544	41.2504
50.94888	3154.335	43.20238
51.00299	3148.14	42.42298
51.05709	3153.752	41.23254
51.1112	3145.348	38.73685
51.16531	3146.75	38.48885
51.21941	3142.729	39.46135
51.27352	3140.236	38.62782
51.32763	3137.62	38.64787
51.38173	3135.16	35.95085
51.43584	3130.21	37.84896
51.48994	3127.08	42.48502
51.54405	3121.254	40.57796
51.59815	3123.042	40.69427
51.65226	3122.06	41.19043
51.70636	3117.59	41.74342
51.76047	3115.343	44.52336
51.81458	3117.622	41.64472
51.86868	3114.525	39.96363
51.92279	3110.514	41.29549
51.97689	3107.712	36.47366
52.031	3103.807	38.43994
52.08511	3098.236	44.8112
52.13921	3098.486	42.31784
52.19332	3096.465	38.27402
52.24742	3092.094	40.96689
52.30153	3090.331	40.67718
52.35563	3085.894	37.43499
52.40974	3085.991	41.61651
52.46384	3081.271	42.72436
52.51795	3081.628	42.06501
52.57206	3075.661	41.70762
52.62616	3074.815	40.13076
52.68027	3069.418	39.64726
52.73438	3072.055	44.27965
52.78848	3066.115	40.22812
52.84259	3067.183	40.20806
52.89669	3062.153	41.64051
52.9508	3059.208	40.49726
53.00491	3055.234	43.96758
53.05901	3057.493	34.90018
53.11312	3048.084	44.66276
53.16722	3054.988	40.74205
53.22133	3040.813	40.69672
53.27543	3051.931	42.26468
53.32954	3039.758	39.44038
53.38364	3044.037	44.78569
53.43775	3037.176	42.12859
53.49186	3037.465	41.013
53.54596	3027.956	38.28244
53.60007	3035.861	38.76052
53.65417	3027.599	46.11708
53.70828	3025.535	44.34195
53.76239	3020.169	44.80513
53.81649	3018.471	45.43914
53.8706	3014.075	43.91916
53.9247	3013.457	40.16415
53.97881	3011.449	37.21784
54.03291	3010.033	37.26206
54.08702	3007.557	43.33287
54.14112	3004.523	45.8734
54.19523	3001.879	41.91703
54.24934	2997.625	43.16495
54.30344	2998.11	43.28707
54.35755	2995.244	38.60994
54.41166	2998.085	33.64998
54.46576	2987.591	35.70802
54.51987	2989.751	32.29013
54.57397	2983.956	39.1271
54.62808	2983.287	36.70509
54.68218	2974.272	37.12354
54.73629	2981.327	38.81381
54.79039	2970.216	37.61465
54.8445	2972.079	34.83954
54.89861	2967.619	35.4311
54.95271	2967.282	42.22628
55.00682	2959.493	42.13049
55.06092	2964.987	39.02905
55.11503	2958.968	36.4352
55.16914	2961.108	34.97253
55.22324	2956.721	37.15112
55.27735	2958.792	39.10756
55.33145	2942.149	37.77067
55.38556	2952.871	38.96766
55.43966	2941.337	38.95327
55.49377	2945.539	34.62944
55.54787	2941.391	39.32969
55.60198	2942.622	36.68946
55.65609	2931.401	40.25095
55.71019	2938.033	34.00729
55.7643	2924.051	39.11459
55.81841	2932.316	40.25723
55.87251	2922.769	38.57869
55.92662	2925.504	39.64498
55.98072	2919.859	40.91096
56.03483	2921.166	38.11202
56.08894	2912.402	37.93054
56.14304	2913.65	40.6583
56.19715	2909.809	39.2816
56.25125	2907.747	37.23593
56.30536	2905.153	36.18902
56.35946	2901.65	34.35117
56.41357	2894.916	32.99869
56.46767	2893.845	32.27847
56.52178	2896.649	33.97351
56.57589	2891.233	38.37939
56.62999	2889.88	40.26756
56.6841	2882.889	42.38072
56.7382	2885.478	42.90598
56.79231	2879.283	41.71069
56.84642	2884.133	38.51239
56.90052	2873.418	36.81004
56.95463	2879.981	35.37164
57.00873	2872.886	37.92442
57.06284	2878.936	40.72507
57.11694	2866.458	38.56588
57.17105	2869.648	40.36478
57.22515	2861.195	45.51659
57.27926	2862.651	33.61801
57.33337	2855.652	35.63559
57.38747	2861.841	34.53654
57.44158	2851.195	41.67041
57.49569	2853.463	39.97327
57.54979	2846.81	40.03785
57.6039	2850.016	40.02015
57.658	2841.279	37.69781
57.71211	2841.53	40.64103
57.76621	2833.877	34.75334
57.82032	2840.61	40.56797
57.87442	2834.232	35.2947
57.92853	2838.751	37.66717
57.98264	2827.636	35.80136
58.03674	2832.043	36.08274
58.09085	2824.704	38.06586
58.14495	2827.464	38.54796
58.19906	2821.341	38.28038
58.25317	2819.507	42.55526
58.30727	2815.339	37.46324
58.36138	2814.659	34.75912
58.41549	2809.062	34.61095
58.46959	2810.842	36.27428
58.5237	2804.45	37.20744
58.5778	2805.124	33.3995
58.63191	2804.385	33.21542
58.68601	2803.548	34.64101
58.74012	2797.768	35.57057
58.79422	2796.151	34.29409
58.84833	2793.975	32.77877
58.90244	2789.957	31.51142
58.95654	2788.851	36.84684
59.01065	2787.426	42.02844
59.06475	2783.996	40.07413
59.11886	2780.547	38.05991
59.17297	2780.995	37.39818
59.22707	2777.359	35.05233
59.28118	2774.637	34.74198
59.33528	2771.119	37.55217
59.38939	2768.816	36.52145
59.44349	2766.726	33.73352
59.4976	2766.613	34.807
59.5517	2763.961	37.82621
59.60581	2764.694	37.85106
59.65992	2756.935	38.18126
59.71402	2758.409	40.4398
59.76813	2751.482	39.56715
59.82224	2755.732	40.74312
59.87634	2749.031	36.00403
59.93045	2746.962	35.56663
59.98455	2742.061	43.74691
60.03866	2745.09	39.39233
60.09276	2741.362	41.16525
60.14687	2738.19	39.54052
60.20097	2734.274	39.14494
60.25508	2738.056	35.34067
60.30919	2727.235	32.03386
60.36329	2733.794	30.9454
60.4174	2725.499	40.66792
