T[Â°C]	350nm [counts / mm]	S.D.	First derivative	S.D. of first derivative
20.00037	4350.765	55.21666	-62.05272	3.24528
20.05447	4347.458	55.31234	-62.04049	3.152721
20.10858	4344.157	55.40739	-62.02788	3.060696
20.16269	4340.86	55.50135	-62.01486	2.96923
20.21679	4337.569	55.59471	-62.00143	2.87835
20.2709	4334.283	55.68776	-61.98759	2.788096
20.325	4330.999	55.78015	-61.97334	2.698489
20.37911	4327.718	55.87077	-61.95866	2.609568
20.43321	4324.44	55.95931	-61.94356	2.521367
20.48732	4321.164	56.04475	-61.92804	2.43392
20.54143	4317.889	56.12715	-61.9121	2.347264
20.59553	4314.615	56.20607	-61.89574	2.26144
20.64964	4311.342	56.28207	-61.87898	2.176484
20.70374	4308.072	56.35564	-61.86182	2.092443
20.75785	4304.804	56.42772	-61.84426	2.009358
20.81195	4301.54	56.49859	-61.82632	1.92727
20.86606	4298.288	56.56882	-61.80801	1.846232
20.92017	4295.062	56.63898	-61.78934	1.76629
20.97427	4291.847	56.71737	-61.77035	1.687504
21.02838	4288.615	56.81652	-61.75103	1.609928
21.08248	4285.355	56.93701	-61.73141	1.533628
21.13659	4282.062	57.0701	-61.71152	1.458675
21.19069	4278.728	57.20171	-61.69139	1.385152
21.2448	4275.354	57.31527	-61.67103	1.313151
21.29891	4271.947	57.39458	-61.65047	1.242779
21.35301	4268.517	57.43142	-61.62975	1.174165
21.40712	4265.07	57.42412	-61.60888	1.107459
21.46123	4261.616	57.38015	-61.58791	1.042849
21.51533	4258.163	57.315	-61.56686	0.9805549
21.56944	4254.716	57.24417	-61.54576	0.9208509
21.62354	4251.277	57.17557	-61.52465	0.864068
21.67765	4247.847	57.11383	-61.50356	0.8106134
21.73175	4244.424	57.06135	-61.4825	0.760982
21.78586	4241.004	57.01498	-61.46153	0.7157573
21.83997	4237.583	56.96848	-61.44068	0.6756253
21.89407	4234.158	56.91186	-61.41997	0.641359
21.94818	4230.723	56.83706	-61.39944	0.6137781
22.00228	4227.278	56.73381	-61.37912	0.5936882
22.05639	4223.83	56.59529	-61.35904	0.5817913
22.11049	4220.386	56.41981	-61.33919	0.5785636
22.1646	4216.96	56.21194	-61.31958	0.5841888
22.21871	4213.559	55.97748	-61.30019	0.5985204
22.27281	4210.192	55.72571	-61.28092	0.621103
22.32692	4206.862	55.46535	-61.26165	0.6512371
22.38102	4203.566	55.20085	-61.24213	0.6880308
22.43513	4200.306	54.93791	-61.22195	0.7303973
22.48923	4197.079	54.68703	-61.20053	0.7770294
22.54334	4193.881	54.4577	-61.17707	0.82632
22.59745	4190.706	54.25762	-61.15069	0.8764753
22.65155	4187.544	54.09337	-61.11229	0.8950416
22.70566	4184.385	53.96293	-61.07237	0.9115782
22.75976	4181.213	53.86037	-61.03105	0.9258334
22.81387	4178.014	53.77487	-60.98846	0.9376011
22.86798	4174.782	53.69284	-60.9448	0.9467368
22.92208	4171.514	53.61062	-60.90025	0.9531552
22.97619	4168.219	53.53271	-60.85507	0.9568368
23.03029	4164.907	53.46511	-60.80951	0.9578272
23.0844	4161.588	53.41109	-60.76387	0.9562575
23.1385	4158.271	53.37539	-60.71845	0.9523044
23.19261	4154.96	53.36929	-60.6736	0.9462034
23.24672	4151.666	53.40052	-60.62967	0.9382391
23.30082	4148.386	53.47097	-60.58698	0.9287261
23.35493	4145.12	53.57522	-60.54588	0.9180097
23.40903	4141.864	53.7001	-60.50668	0.9064387
23.46314	4138.616	53.83317	-60.46967	0.8943595
23.51724	4135.372	53.96161	-60.43509	0.8820922
23.57135	4132.122	54.07048	-60.40313	0.8699314
23.62546	4128.859	54.15219	-60.37395	0.8581367
23.67956	4125.58	54.20823	-60.34763	0.8469284
23.73367	4122.283	54.24289	-60.3242	0.8364976
23.78777	4118.969	54.26292	-60.30363	0.8269994
23.84188	4115.646	54.27275	-60.28587	0.8185642
23.89598	4112.318	54.27619	-60.27082	0.8112939
23.95009	4108.995	54.27279	-60.25833	0.8052521
24.0042	4105.686	54.26054	-60.24825	0.8004667
24.0583	4102.4	54.23551	-60.24039	0.7969353
24.11241	4099.143	54.19822	-60.23457	0.7946383
24.16652	4095.92	54.1522	-60.23059	0.793548
24.22062	4092.738	54.10056	-60.22824	0.7936336
24.27473	4089.592	54.04701	-60.22732	0.7948881
24.32883	4086.473	53.99167	-60.22761	0.7972931
24.38294	4083.365	53.93332	-60.22885	0.800801
24.43704	4080.252	53.87164	-60.23075	0.8053133
24.49115	4077.123	53.80602	-60.23299	0.8106836
24.54526	4073.97	53.73728	-60.23523	0.8167266
24.59936	4070.795	53.67402	-60.23712	0.8232344
24.65347	4067.598	53.62685	-60.23837	0.829987
24.70757	4064.381	53.60291	-60.23868	0.8367767
24.76168	4061.146	53.60033	-60.23782	0.8433999
24.81578	4057.899	53.60933	-60.23559	0.8496609
24.86989	4054.642	53.62097	-60.23186	0.855383
24.924	4051.38	53.63369	-60.22656	0.8604234
24.9781	4048.121	53.65255	-60.2197	0.8646984
25.03221	4044.868	53.68131	-60.21134	0.8682137
25.08631	4041.624	53.71857	-60.20166	0.87108
25.14042	4038.385	53.75767	-60.19082	0.8735121
25.19452	4035.145	53.78917	-60.17905	0.875825
25.24863	4031.897	53.80371	-60.16656	0.8784018
25.30274	4028.633	53.79389	-60.1535	0.8816594
25.35684	4025.345	53.75403	-60.13999	0.8860161
25.41095	4022.028	53.68072	-60.12614	0.8918546
25.46505	4018.681	53.57334	-60.11202	0.8994977
25.51916	4015.308	53.43116	-60.09768	0.9091693
25.57327	4011.915	53.25156	-60.08316	0.9209572
25.62737	4008.511	53.0313	-60.06848	0.9347925
25.68148	4005.111	52.77321	-60.05364	0.9504551
25.73558	4001.725	52.48679	-60.0386	0.9676076
25.78969	3998.36	52.18238	-60.02334	0.9858042
25.84379	3995.019	51.87379	-60.00779	1.004538
25.8979	3991.705	51.57342	-59.99188	1.023239
25.95201	3988.415	51.29293	-59.97556	1.041329
26.00611	3985.145	51.04311	-59.95877	1.058253
26.06022	3981.887	50.83281	-59.94145	1.073523
26.11432	3978.636	50.66774	-59.92353	1.086726
26.16843	3975.388	50.54868	-59.90495	1.097526
26.22253	3972.138	50.47234	-59.88565	1.105651
26.27664	3968.884	50.43009	-59.86555	1.110899
26.33075	3965.626	50.41479	-59.84455	1.113092
26.38485	3962.368	50.42159	-59.82253	1.112085
26.43896	3959.113	50.4453	-59.79933	1.107762
26.49306	3955.863	50.4826	-59.77482	1.100025
26.54717	3952.624	50.5335	-59.74887	1.08883
26.60127	3949.4	50.60239	-59.72139	1.074182
26.65538	3946.195	50.69563	-59.69227	1.056132
26.70949	3943.006	50.81951	-59.66147	1.034782
26.76359	3939.83	50.97346	-59.62897	1.010289
26.8177	3936.658	51.1479	-59.59477	0.9828551
26.87181	3933.488	51.33221	-59.5589	0.9527487
26.92591	3930.319	51.51675	-59.52141	0.9202859
26.98002	3927.154	51.69447	-59.48239	0.8858535
27.03412	3923.993	51.862	-59.44192	0.8498912
27.08823	3920.837	52.01384	-59.40011	0.8128928
27.14233	3917.681	52.1431	-59.35707	0.7753859
27.19644	3914.518	52.24287	-59.3129	0.7378989
27.25055	3911.346	52.30846	-59.26767	0.7009318
27.30465	3908.161	52.33991	-59.22142	0.6649292
27.35876	3904.962	52.3401	-59.17419	0.6302778
27.41286	3901.751	52.31166	-59.12606	0.5972814
27.46697	3898.531	52.25793	-59.07708	0.5661637
27.52107	3895.305	52.18399	-59.02739	0.5370533
27.57518	3892.073	52.0919	-58.97713	0.5100014
27.62929	3888.839	51.98081	-58.92646	0.485013
27.68339	3885.604	51.85312	-58.87558	0.4620893
27.7375	3882.378	51.71063	-58.82464	0.4412844
27.7916	3879.17	51.56121	-58.77384	0.4227644
27.84571	3875.991	51.41446	-58.72335	0.4068367
27.89981	3872.847	51.27731	-58.67336	0.3939907
27.95392	3869.735	51.15663	-58.62404	0.3848566
28.00803	3866.642	51.0583	-58.57557	0.3801716
28.06213	3863.557	50.98714	-58.52809	0.3806317
28.11624	3860.467	50.94563	-58.48176	0.3867326
28.17034	3857.363	50.93696	-58.43668	0.3986067
28.22445	3854.241	50.96185	-58.39293	0.4159965
28.27855	3851.098	51.0147	-58.3506	0.438293
28.33266	3847.933	51.08337	-58.30972	0.4646483
28.38677	3844.747	51.15131	-58.27035	0.4941016
28.44087	3841.54	51.20442	-58.23254	0.5256714
28.49498	3838.317	51.2354	-58.19635	0.5584305
28.54908	3835.088	51.24082	-58.16184	0.591503
28.60319	3831.864	51.22011	-58.12909	0.6240928
28.6573	3828.654	51.18082	-58.09817	0.6554784
28.7114	3825.463	51.13835	-58.06915	0.685039
28.76551	3822.29	51.10666	-58.04207	0.7122216
28.81961	3819.13	51.09348	-58.01694	0.7365673
28.87372	3815.976	51.10102	-57.99372	0.7576843
28.92782	3812.824	51.13096	-57.97233	0.7752736
28.98193	3809.668	51.18352	-57.95265	0.7891077
29.03604	3806.507	51.25214	-57.93451	0.7990553
29.09014	3803.342	51.32582	-57.91773	0.805077
29.14425	3800.174	51.39354	-57.90209	0.8072399
29.19835	3797.007	51.4421	-57.88736	0.805703
29.25246	3793.845	51.45698	-57.87333	0.8007172
29.30656	3790.691	51.42852	-57.85978	0.7926231
29.36067	3787.55	51.35546	-57.84654	0.7818355
29.41478	3784.426	51.23926	-57.83347	0.7688613
29.46888	3781.328	51.08665	-57.82047	0.7542906
29.52299	3778.266	50.91007	-57.80746	0.7387774
29.57709	3775.243	50.72476	-57.79444	0.7229894
29.6312	3772.255	50.53935	-57.78138	0.707561
29.68531	3769.288	50.35752	-57.76828	0.69305
29.73941	3766.33	50.18377	-57.75515	0.6799061
29.79352	3763.37	50.01702	-57.74198	0.6684669
29.84762	3760.396	49.85467	-57.72878	0.6589563
29.90173	3757.406	49.69188	-57.71553	0.6514735
29.95584	3754.397	49.526	-57.70224	0.6460258
30.00994	3751.369	49.35771	-57.68888	0.6425356
30.06405	3748.315	49.18467	-57.67545	0.6408744
30.11815	3745.233	49.00906	-57.66193	0.6408517
30.17226	3742.118	48.84051	-57.64831	0.6422632
30.22636	3738.978	48.69169	-57.63462	0.6448818
30.28047	3735.818	48.57365	-57.62093	0.6484918
30.33458	3732.648	48.49172	-57.60732	0.6529055
30.38868	3729.476	48.45191	-57.5939	0.6579616
30.44279	3726.307	48.45658	-57.58081	0.6635233
30.49689	3723.144	48.50481	-57.56819	0.6694575
30.551	3719.989	48.58524	-57.55617	0.6756307
30.6051	3716.84	48.68002	-57.54486	0.6819028
30.65921	3713.697	48.77794	-57.53432	0.6881407
30.71332	3710.555	48.87344	-57.52457	0.6942196
30.76742	3707.412	48.96342	-57.51562	0.7000368
30.82153	3704.261	49.04513	-57.50737	0.7054849
30.87563	3701.102	49.1177	-57.49973	0.7104589
30.92974	3697.932	49.18293	-57.49252	0.7148455
30.98384	3694.752	49.24405	-57.48555	0.7185308
31.03795	3691.557	49.30802	-57.47857	0.7214073
31.09206	3688.35	49.38297	-57.47131	0.723389
31.14616	3685.136	49.47474	-57.46349	0.7244221
31.20027	3681.926	49.57994	-57.4548	0.7244908
31.25437	3678.729	49.68726	-57.44495	0.7236188
31.30848	3675.558	49.78535	-57.43364	0.7218919
31.36259	3672.42	49.86372	-57.4206	0.7194693
31.41669	3669.313	49.91389	-57.40558	0.716562
31.4708	3666.234	49.92993	-57.38839	0.713461
31.5249	3663.179	49.91067	-57.36884	0.7105255
31.57901	3660.14	49.85513	-57.34683	0.7081842
31.63311	3657.108	49.76234	-57.32225	0.7068887
31.68722	3654.074	49.63884	-57.29504	0.7071084
31.74133	3651.032	49.49643	-57.26519	0.7092922
31.79543	3647.972	49.35036	-57.23269	0.7138435
31.84954	3644.891	49.21302	-57.1976	0.7210696
31.90364	3641.787	49.09125	-57.15998	0.7311997
31.95775	3638.665	48.98997	-57.11993	0.744335
32.01186	3635.532	48.90601	-57.07755	0.7604742
32.06596	3632.397	48.83268	-57.03301	0.7794971
32.12007	3629.267	48.76421	-56.9865	0.8011897
32.17417	3626.144	48.70097	-56.93825	0.8252609
32.22828	3623.031	48.64846	-56.8885	0.8513593
32.28238	3619.928	48.60649	-56.83755	0.8791174
32.33649	3616.835	48.57453	-56.78573	0.9081832
32.39059	3613.75	48.5516	-56.7334	0.9381952
32.4447	3610.671	48.53641	-56.6809	0.9688211
32.49881	3607.597	48.52296	-56.62861	0.9997358
32.55291	3604.524	48.50193	-56.57684	1.030644
32.60702	3601.449	48.46457	-56.5259	1.061277
32.66113	3598.366	48.40535	-56.47607	1.091402
32.71523	3595.271	48.32335	-56.4276	1.120816
32.76934	3592.162	48.22275	-56.38073	1.149338
32.82344	3589.042	48.10952	-56.33566	1.176775
32.87755	3585.915	47.98409	-56.29256	1.202931
32.93165	3582.794	47.84493	-56.25159	1.227575
32.98576	3579.69	47.69464	-56.2129	1.250445
33.03986	3576.61	47.54013	-56.17657	1.271246
33.09397	3573.558	47.39445	-56.14266	1.289656
33.14808	3570.537	47.26778	-56.11119	1.30537
33.20218	3567.544	47.16126	-56.08215	1.318099
33.25629	3564.573	47.07138	-56.05545	1.327636
33.31039	3561.62	46.99314	-56.03097	1.333826
33.3645	3558.683	46.92228	-56.00854	1.336599
33.41861	3555.759	46.85486	-55.98796	1.335964
33.47271	3552.837	46.78658	-55.969	1.332044
33.52682	3549.915	46.71705	-55.95141	1.325067
33.58092	3546.988	46.64943	-55.93494	1.315373
33.63503	3544.057	46.58362	-55.91931	1.303409
33.68913	3541.122	46.51658	-55.90428	1.289704
33.74324	3538.183	46.44927	-55.88963	1.274804
33.79735	3535.241	46.38735	-55.8752	1.259261
33.85145	3532.298	46.33653	-55.86084	1.2436
33.90556	3529.353	46.29998	-55.84649	1.22831
33.95966	3526.407	46.2788	-55.83207	1.21384
34.01377	3523.46	46.27058	-55.81759	1.20058
34.06787	3520.509	46.26386	-55.80309	1.188859
34.12198	3517.554	46.24568	-55.78858	1.178927
34.17609	3514.597	46.20731	-55.77413	1.170952
34.23019	3511.635	46.14427	-55.75976	1.165025
34.2843	3508.665	46.06088	-55.74551	1.161152
34.33841	3505.682	45.96355	-55.7314	1.15928
34.39251	3502.681	45.85814	-55.71746	1.159278
34.44662	3499.66	45.74989	-55.70372	1.16096
34.50072	3496.621	45.64085	-55.69019	1.164109
34.55483	3493.57	45.53139	-55.67689	1.168487
34.60893	3490.51	45.42151	-55.66382	1.173879
34.66304	3487.448	45.31083	-55.65094	1.180092
34.71714	3484.391	45.1985	-55.63824	1.186975
34.77125	3481.339	45.08579	-55.62567	1.194404
34.82536	3478.294	44.97399	-55.61318	1.202276
34.87946	3475.251	44.8645	-55.60074	1.21048
34.93357	3472.204	44.76192	-55.5883	1.218881
34.98767	3469.149	44.66896	-55.57583	1.227316
35.04178	3466.083	44.59007	-55.5633	1.235567
35.09589	3463.007	44.53207	-55.5507	1.243384
35.14999	3459.926	44.4996	-55.53799	1.25047
35.2041	3456.843	44.49476	-55.52514	1.256503
35.2582	3453.76	44.51516	-55.51204	1.261136
35.31231	3450.678	44.55772	-55.49858	1.264008
35.36641	3447.602	44.61953	-55.48464	1.264778
35.42052	3444.531	44.6939	-55.47004	1.263145
35.47462	3441.465	44.77433	-55.45459	1.258863
35.52873	3438.403	44.85734	-55.43805	1.251779
35.58284	3435.346	44.94155	-55.42019	1.241832
35.63694	3432.293	45.02145	-55.40073	1.229067
35.69105	3429.241	45.08791	-55.37947	1.213614
35.74516	3426.193	45.13416	-55.35617	1.195676
35.79926	3423.15	45.15714	-55.3307	1.175505
35.85337	3420.116	45.15448	-55.30291	1.153428
35.90747	3417.093	45.1258	-55.27276	1.12983
35.96158	3414.081	45.06831	-55.24024	1.105153
36.01568	3411.08	44.97889	-55.20536	1.079882
36.06979	3408.089	44.85826	-55.16821	1.054517
36.12389	3405.109	44.70434	-55.12889	1.029568
36.178	3402.141	44.51107	-55.08755	1.005513
36.23211	3399.187	44.27945	-55.04435	0.9827874
36.28621	3396.243	44.01803	-54.99949	0.9617687
36.34032	3393.306	43.74036	-54.95321	0.9427571
36.39442	3390.377	43.4629	-54.90578	0.9259436
36.44853	3387.455	43.1997	-54.85747	0.9113991
36.50264	3384.538	42.95771	-54.80856	0.8990858
36.55674	3381.623	42.7407	-54.75933	0.8888686
36.61085	3378.707	42.55043	-54.71002	0.8805405
36.66496	3375.788	42.38695	-54.6609	0.8738358
36.71906	3372.867	42.2464	-54.61217	0.8684669
36.77317	3369.947	42.12376	-54.56406	0.8641322
36.82727	3367.033	42.01117	-54.51675	0.8605199
36.88138	3364.12	41.90314	-54.47042	0.8573264
36.93548	3361.204	41.80293	-54.42523	0.8542244
36.98959	3358.277	41.71647	-54.38137	0.8508815
37.04369	3355.337	41.65006	-54.33901	0.8469654
37.0978	3352.384	41.60726	-54.29834	0.8421618
37.15191	3349.421	41.58972	-54.25954	0.8361809
37.20601	3346.454	41.60011	-54.22275	0.8287596
37.26012	3343.487	41.64324	-54.18811	0.8196786
37.31422	3340.527	41.72044	-54.15569	0.8087563
37.36833	3337.582	41.82793	-54.12554	0.7958764
37.42244	3334.654	41.95948	-54.09767	0.7809803
37.47654	3331.747	42.1068	-54.07206	0.7640922
37.53065	3328.86	42.26316	-54.04862	0.7453164
37.58475	3325.987	42.41925	-54.02724	0.7248451
37.63886	3323.119	42.5644	-54.00777	0.702935
37.69296	3320.25	42.68799	-53.99004	0.6799165
37.74707	3317.376	42.78268	-53.97386	0.6561821
37.80117	3314.5	42.84626	-53.95899	0.6321917
37.85528	3311.621	42.88549	-53.94521	0.6084605
37.90939	3308.741	42.90376	-53.93228	0.5855584
37.96349	3305.861	42.90123	-53.91996	0.564082
38.0176	3302.983	42.8809	-53.908	0.5446256
38.0717	3300.114	42.84703	-53.89617	0.5277511
38.12581	3297.257	42.80375	-53.88427	0.5139136
38.17992	3294.41	42.75407	-53.87213	0.5034302
38.23402	3291.572	42.69898	-53.85961	0.4964597
38.28813	3288.734	42.63923	-53.84661	0.4929688
38.34223	3285.893	42.5774	-53.83309	0.4927757
38.39634	3283.04	42.51661	-53.819	0.4955578
38.45044	3280.169	42.4598	-53.80432	0.5009072
38.50455	3277.278	42.40903	-53.78901	0.5083425
38.55865	3274.365	42.36407	-53.77304	0.517354
38.61276	3271.43	42.3237	-53.75641	0.5274364
38.66687	3268.474	42.28764	-53.73908	0.5381447
38.72097	3265.504	42.2565	-53.72105	0.549108
38.77508	3262.528	42.2267	-53.70228	0.5600489
38.82919	3259.548	42.189	-53.68276	0.5707911
38.88329	3256.57	42.14027	-53.66247	0.5812239
38.9374	3253.6	42.08312	-53.64138	0.5912943
38.9915	3250.641	42.02258	-53.61949	0.6009946
39.04561	3247.696	41.96491	-53.5968	0.6103586
39.09971	3244.762	41.91488	-53.57333	0.6194553
39.15382	3241.837	41.87356	-53.5491	0.6283556
39.20793	3238.915	41.84127	-53.52412	0.6371067
39.26203	3235.987	41.81622	-53.49841	0.6457084
39.31614	3233.053	41.7951	-53.47197	0.6541075
39.37024	3230.112	41.77869	-53.4448	0.6621737
39.42435	3227.161	41.76757	-53.4169	0.6697057
39.47845	3224.204	41.76499	-53.38827	0.6764497
39.53256	3221.241	41.77076	-53.35886	0.6821033
39.58667	3218.27	41.77629	-53.3287	0.6863671
39.64077	3215.296	41.7698	-53.29776	0.688934
39.69488	3212.323	41.74185	-53.26607	0.6895319
39.74899	3209.361	41.68908	-53.23363	0.6879324
39.80309	3206.419	41.6161	-53.20045	0.6839731
39.8572	3203.506	41.53143	-53.16655	0.6775495
39.9113	3200.618	41.44177	-53.13197	0.6686211
39.96541	3197.746	41.35302	-53.09673	0.6572151
40.01951	3194.888	41.27013	-53.06086	0.643402
40.07362	3192.043	41.19367	-53.0244	0.627308
40.12772	3189.208	41.12268	-52.98739	0.6091114
40.18183	3186.381	41.05431	-52.94988	0.5890356
40.23594	3183.56	40.98405	-52.91194	0.5673463
40.29004	3180.747	40.90643	-52.87366	0.5443493
40.34415	3177.938	40.82077	-52.83515	0.520381
40.39825	3175.129	40.72877	-52.7965	0.495804
40.45236	3172.314	40.63476	-52.75782	0.4709786
40.50647	3169.492	40.54349	-52.71923	0.4462652
40.56057	3166.664	40.4562	-52.68084	0.4220087
40.61468	3163.83	40.38027	-52.64276	0.3985601
40.66878	3160.998	40.32428	-52.60512	0.3762859
40.72289	3158.172	40.29391	-52.56803	0.3555848
40.77699	3155.353	40.28751	-52.53157	0.336888
40.8311	3152.536	40.30213	-52.4958	0.3206754
40.8852	3149.723	40.33536	-52.46075	0.3074449
40.93931	3146.916	40.38085	-52.42643	0.2976868
40.99342	3144.115	40.43077	-52.39282	0.2918369
41.04752	3141.319	40.47882	-52.35987	0.2902198
41.10163	3138.525	40.52354	-52.32753	0.2930113
41.15574	3135.729	40.56536	-52.2957	0.3001997
41.20984	3132.926	40.60076	-52.26432	0.3116138
41.26395	3130.115	40.62405	-52.23327	0.3269399
41.31805	3127.299	40.62746	-52.20245	0.3457691
41.37216	3124.48	40.60373	-52.17176	0.3676421
41.42626	3121.666	40.55258	-52.14108	0.3920842
41.48037	3118.863	40.48472	-52.11029	0.418649
41.53447	3116.074	40.41527	-52.07934	0.4469053
41.58858	3113.299	40.35395	-52.04814	0.4764471
41.64268	3110.533	40.30437	-52.01664	0.5068899
41.69679	3107.771	40.26874	-51.98481	0.5378721
41.7509	3105.01	40.24821	-51.95264	0.5690491
41.805	3102.252	40.24515	-51.92012	0.6000733
41.85911	3099.5	40.26301	-51.88727	0.6306065
41.91322	3096.75	40.30478	-51.85411	0.6603206
41.96732	3093.997	40.3731	-51.82067	0.6889043
42.02143	3091.237	40.46647	-51.78696	0.7160738
42.07553	3088.467	40.57928	-51.75301	0.7415991
42.12964	3085.683	40.7056	-51.71883	0.7652964
42.18375	3082.883	40.83728	-51.68444	0.7870234
42.23785	3080.063	40.96225	-51.64986	0.8066816
42.29196	3077.226	41.07316	-51.61513	0.8242101
42.34606	3074.374	41.16753	-51.58031	0.8395973
42.40017	3071.506	41.24816	-51.54544	0.8528614
42.45427	3068.627	41.31979	-51.51057	0.8640652
42.50838	3065.74	41.38434	-51.47576	0.8732935
42.56248	3062.85	41.44444	-51.44104	0.880672
42.61659	3059.959	41.4994	-51.40646	0.8863556
42.6707	3057.072	41.54557	-51.37205	0.8905518
42.7248	3054.188	41.57663	-51.33782	0.8934988
42.77891	3051.308	41.58673	-51.30376	0.8954682
42.83302	3048.43	41.56906	-51.26984	0.8967403
42.88712	3045.559	41.51487	-51.23602	0.8976054
42.94123	3042.696	41.41533	-51.20222	0.8983396
42.99533	3039.849	41.26141	-51.16835	0.8992045
43.04944	3037.02	41.04892	-51.13432	0.9004118
43.10354	3034.21	40.781	-51.10001	0.9021248
43.15765	3031.419	40.46533	-51.06531	0.9044306
43.21175	3028.646	40.11269	-51.03012	0.9073598
43.26586	3025.892	39.73635	-50.99435	0.9108739
