T[Â°C]	350nm [counts / mm]	S.D.
20.00037	4352.571	55.62536
20.05447	4351.569	51.81334
20.10858	4343.294	54.66114
20.16269	4342.223	55.29579
20.21679	4340.393	63.61813
20.2709	4333.644	57.39896
20.325	4324.792	54.09156
20.37911	4326.004	54.71546
20.43321	4326.095	51.58919
20.48732	4319.584	54.25406
20.54143	4317.854	51.72314
20.59553	4310.991	58.11298
20.64964	4311.764	59.71464
20.70374	4306.964	59.41217
20.75785	4307.348	57.04537
20.81195	4300.982	53.92765
20.86606	4296.263	61.80444
20.92017	4292.746	55.4788
20.97427	4295.383	57.02069
21.02838	4285.514	59.92438
21.08248	4285.617	56.0621
21.13659	4279.708	57.27581
21.19069	4281.841	59.16119
21.2448	4275.568	53.67573
21.29891	4274.035	54.7413
21.35301	4273.066	55.7189
21.40712	4267.022	59.70689
21.46123	4264.457	55.35127
21.51533	4265.879	57.92186
21.56944	4254.463	58.7623
21.62354	4252.829	55.23179
21.67765	4242.764	60.86511
21.73175	4241.88	57.59673
21.78586	4242.955	56.31814
21.83997	4236.204	68.224
21.89407	4230.376	60.43754
21.94818	4229.849	56.45636
22.00228	4219.63	54.02841
22.05639	4222.862	57.50262
22.11049	4216.766	56.36905
22.1646	4219.169	49.55834
22.21871	4209.916	52.11765
22.27281	4211.547	53.67118
22.32692	4209.649	54.1412
22.38102	4208.626	63.61528
22.43513	4198.898	59.30815
22.48923	4197.87	54.27499
22.54334	4198.395	58.61005
22.59745	4193.473	58.17096
22.65155	4185.543	47.63316
22.70566	4184.577	52.75319
22.75976	4178.361	50.62228
22.81387	4171.289	52.30524
22.86798	4176.084	50.25031
22.92208	4171.102	53.67714
22.97619	4166.042	51.73003
23.03029	4166.34	58.82896
23.0844	4161.379	53.49685
23.1385	4159.549	51.93126
23.19261	4152.153	53.61863
23.24672	4150.41	46.48189
23.30082	4153.946	52.24295
23.35493	4149.767	57.73587
23.40903	4146.303	53.93092
23.46314	4139.83	54.76323
23.51724	4134.009	56.99519
23.57135	4129.571	52.3119
23.62546	4125.086	50.92281
23.67956	4125.038	50.93872
23.73367	4120.629	54.78387
23.78777	4115.753	57.00869
23.84188	4119.367	58.17781
23.89598	4114.129	57.65897
23.95009	4106.138	52.27609
24.0042	4106.152	55.15749
24.0583	4103.714	57.57549
24.11241	4099.11	56.48768
24.16652	4093.368	54.81155
24.22062	4092.751	54.21152
24.27473	4090.08	53.71933
24.32883	4086.233	54.82951
24.38294	4084.736	51.58943
24.43704	4080.651	49.59811
24.49115	4075.061	54.08613
24.54526	4072.199	53.54553
24.59936	4068.843	54.85919
24.65347	4064.591	54.22725
24.70757	4062.912	51.64701
24.76168	4062.609	52.56027
24.81578	4061.75	53.51681
24.86989	4056.637	53.83305
24.924	4052.699	52.55354
24.9781	4051.084	55.29941
25.03221	4046.645	53.76171
25.08631	4045.819	54.9354
25.14042	4039.784	50.72416
25.19452	4035.83	55.37826
25.24863	4030.552	56.07361
25.30274	4025.824	54.5769
25.35684	4023.512	54.14791
25.41095	4019.302	51.52045
25.46505	4018.951	58.06705
25.51916	4013.519	57.15503
25.57327	4009.93	54.47087
25.62737	4007.356	54.22131
25.68148	4003.867	44.9817
25.73558	4003.35	51.40546
25.78969	4002.163	56.0162
25.84379	3996.603	57.08139
25.8979	3994.218	57.39511
25.95201	3992.07	54.47225
26.00611	3983.344	50.11549
26.06022	3977.135	48.25331
26.11432	3981.694	47.92966
26.16843	3975.592	50.46804
26.22253	3967.524	47.30021
26.27664	3971.608	46.96703
26.33075	3960.646	46.54252
26.38485	3963.942	49.40339
26.43896	3955.879	45.21893
26.49306	3954.203	42.98779
26.54717	3955.757	49.10796
26.60127	3948.251	54.32018
26.65538	3946.146	44.31232
26.70949	3943.322	56.06126
26.76359	3941.027	50.63707
26.8177	3934.584	53.79103
26.87181	3932.678	57.6155
26.92591	3931.617	56.49292
26.98002	3931.125	55.0882
27.03412	3922.097	51.00414
27.08823	3921.09	55.66248
27.14233	3916.59	48.48291
27.19644	3914.502	52.92389
27.25055	3915.471	52.58801
27.30465	3904.266	50.46155
27.35876	3908.623	55.00592
27.41286	3899.354	55.11474
27.46697	3900.739	51.1714
27.52107	3893.198	50.81472
27.57518	3890.602	50.79248
27.62929	3886.873	50.01021
27.68339	3883.627	48.4986
27.7375	3884.65	52.78587
27.7916	3884.325	51.72232
27.84571	3875.827	53.05435
27.89981	3874.604	55.00518
27.95392	3870.4	50.16504
28.00803	3863.531	51.94844
28.06213	3862.65	53.40058
28.11624	3858.287	50.69237
28.17034	3853.892	53.33036
28.22445	3852.78	54.48272
28.27855	3851.709	49.79474
28.33266	3847.68	46.29064
28.38677	3843.385	50.08169
28.44087	3841.596	49.70984
28.49498	3837.264	45.96217
28.54908	3835.009	45.15535
28.60319	3835.998	48.6984
28.6573	3834.256	53.02629
28.7114	3831.395	54.7951
28.76551	3827.326	54.17194
28.81961	3820.839	53.02323
28.87372	3811.57	53.69398
28.92782	3808.145	52.64452
28.98193	3806.717	52.99464
29.03604	3804.459	54.81002
29.09014	3805.098	56.80315
29.14425	3799.235	52.51962
29.19835	3793.853	48.6669
29.25246	3791.382	48.48107
29.30656	3787.707	48.69112
29.36067	3786.938	50.3868
29.41478	3784.839	48.38852
29.46888	3781.257	45.95492
29.52299	3776.91	49.37193
29.57709	3777.375	58.34538
29.6312	3773.3	54.53275
29.68531	3770.645	50.08493
29.73941	3766.149	48.41899
29.79352	3765.343	55.73014
29.84762	3760.943	51.79741
29.90173	3756.737	47.99316
29.95584	3753.3	48.99674
30.00994	3754.018	50.5365
30.06405	3746.984	52.38689
30.11815	3744.761	46.38511
30.17226	3744.697	45.58755
30.22636	3735.279	51.06688
30.28047	3734.455	48.13381
30.33458	3733.399	48.66698
30.38868	3735.696	46.81712
30.44279	3729.867	49.35545
30.49689	3719.758	44.89245
30.551	3720.804	44.618
30.6051	3720.198	53.78162
30.65921	3712.406	42.03982
30.71332	3706.608	43.52698
30.76742	3709.225	44.55389
30.82153	3699.518	46.26985
30.87563	3705.448	54.84204
30.92974	3694.06	44.24335
30.98384	3693.522	55.69421
31.03795	3687.722	56.33422
31.09206	3690.283	54.50713
31.14616	3687.383	54.67635
31.20027	3680.738	48.77835
31.25437	3682.397	56.42986
31.30848	3676.011	48.35425
31.36259	3671.587	51.6365
31.41669	3672.131	44.84117
31.4708	3665.802	46.20716
31.5249	3664.792	48.56236
31.57901	3659.514	50.70444
31.63311	3656.417	48.83199
31.68722	3652.549	48.9911
31.74133	3649.621	46.68249
31.79543	3645.741	45.53859
31.84954	3644.95	49.68155
31.90364	3635.553	53.29441
31.95775	3634.345	55.11804
32.01186	3638.292	51.98819
32.06596	3632.945	47.05002
32.12007	3629.253	46.45339
32.17417	3631.05	48.62938
32.22828	3630.173	50.32273
32.28238	3621.576	48.64565
32.33649	3616.31	50.87814
32.39059	3615.27	50.33383
32.4447	3612.729	47.22974
32.49881	3607.616	47.19135
32.55291	3602.146	43.90965
32.60702	3600.212	47.53006
32.66113	3595.201	51.49733
32.71523	3593.061	47.74104
32.76934	3592.59	45.1781
32.82344	3586.527	45.28366
32.87755	3586.476	46.4687
32.93165	3581.287	47.96509
32.98576	3580.97	46.26075
33.03986	3574.315	53.40192
33.09397	3571.964	56.583
33.14808	3570.759	48.94202
33.20218	3567.667	49.56234
33.25629	3564.442	50.19182
33.31039	3564.501	47.20979
33.3645	3560.629	45.34186
33.41861	3558.358	43.63003
33.47271	3552.095	45.36816
33.52682	3549.599	42.18002
33.58092	3544.693	43.42715
33.63503	3541.222	45.27203
33.68913	3541.861	47.43722
33.74324	3534.68	41.55058
33.79735	3537.868	46.00345
33.85145	3530.698	48.82981
33.90556	3531.126	43.83035
33.95966	3526.182	49.64187
34.01377	3522.865	49.32926
34.06787	3524.279	43.44434
34.12198	3514.962	47.07162
34.17609	3513.971	45.85572
34.23019	3514.105	51.63395
34.2843	3510.922	48.87883
34.33841	3500.736	43.17707
34.39251	3504.616	50.05191
34.44662	3500.2	50.60565
34.50072	3498.967	47.55807
34.55483	3491.793	44.53582
34.60893	3491.982	44.41084
34.66304	3489.911	48.38724
34.71714	3485.826	41.89125
34.77125	3480.6	42.82185
34.82536	3480.861	43.19078
34.87946	3471.72	43.44264
34.93357	3470.851	39.28518
34.98767	3467.122	42.84348
35.04178	3468.469	38.88194
35.09589	3461.584	42.88473
35.14999	3458.296	52.58018
35.2041	3455.209	47.38285
35.2582	3454.237	44.6805
35.31231	3448.669	46.39771
35.36641	3450.776	43.76455
35.42052	3444.846	43.32147
35.47462	3440.63	46.22193
35.52873	3440.959	46.1958
35.58284	3437.983	43.57327
35.63694	3432.408	44.07372
35.69105	3431.249	45.44421
35.74516	3424.366	45.61343
35.79926	3419.366	47.82724
35.85337	3418.838	45.14764
35.90747	3417.848	44.83857
35.96158	3414.887	44.59193
36.01568	3412.253	44.04791
36.06979	3408.899	43.90549
36.12389	3404.386	44.87853
36.178	3399.963	44.61113
36.23211	3398.162	43.96804
36.28621	3394.096	46.27652
36.34032	3391.153	46.84117
36.39442	3388.962	47.53146
36.44853	3386.889	47.77826
36.50264	3384.584	44.37679
36.55674	3380.379	41.54628
36.61085	3381.277	43.31352
36.66496	3380.047	43.61036
36.71906	3374.418	42.99471
36.77317	3368.051	42.55528
36.82727	3367.888	33.47686
36.88138	3364.119	35.27889
36.93548	3362.184	39.90745
36.98959	3360.525	37.81615
37.04369	3355.208	36.37582
37.0978	3352.224	39.09012
37.15191	3348.04	42.09221
37.20601	3343.236	42.74226
37.26012	3347.863	46.52387
37.31422	3339.518	44.46495
37.36833	3337.071	41.21599
37.42244	3331.812	44.60646
37.47654	3334.23	41.08894
37.53065	3325.311	45.40226
37.58475	3326.434	40.69381
37.63886	3324.727	45.97217
37.69296	3321.431	41.59747
37.74707	3310.011	39.19738
37.80117	3316.065	50.44513
37.85528	3306.458	43.46826
37.90939	3312.203	43.57621
37.96349	3306.002	40.97666
38.0176	3305.234	37.88211
38.0717	3302.329	41.45209
38.12581	3296.165	45.19364
38.17992	3296.744	44.40199
38.23402	3295.683	41.89321
38.28813	3288.683	44.96944
38.34223	3286.987	40.79453
38.39634	3282.002	45.90422
38.45044	3277.956	39.53698
38.50455	3274.003	43.95195
38.55865	3274.066	43.45591
38.61276	3270.524	43.32502
38.66687	3268.988	42.87072
38.72097	3265.322	45.1349
38.77508	3262.392	40.96799
38.82919	3257.521	39.65214
38.88329	3261.699	41.13783
38.9374	3256.955	41.11193
38.9915	3250.88	40.72958
39.04561	3247.695	43.4623
39.09971	3243.561	41.00371
39.15382	3243.058	44.36477
39.20793	3239.014	42.03712
39.26203	3231.545	40.94682
39.31614	3233.318	44.06261
39.37024	3230.522	41.35186
39.42435	3227.844	41.13625
39.47845	3223.371	39.17974
39.53256	3221.159	43.47141
39.58667	3219.668	43.52679
39.64077	3213.816	39.46302
39.69488	3208.177	39.99421
39.74899	3208.772	43.06018
39.80309	3209.472	43.94474
39.8572	3206.061	40.65882
39.9113	3201.02	41.98243
39.96541	3197.481	43.67752
40.01951	3194.93	42.47391
40.07362	3191.162	41.72016
40.12772	3188.568	38.78121
40.18183	3189.216	40.04738
40.23594	3183.558	43.59328
40.29004	3176.137	42.87134
40.34415	3179.093	43.80067
40.39825	3168.778	43.87437
40.45236	3170.942	34.09232
40.50647	3168.083	34.80531
40.56057	3167.227	38.37874
40.61468	3166.806	40.76076
40.66878	3165.224	42.1644
40.72289	3161.136	43.00919
40.77699	3153.66	39.6973
40.8311	3147.924	40.01634
40.8852	3154.194	42.94042
40.93931	3147.371	39.15223
40.99342	3144.716	39.09515
41.04752	3140.694	41.88583
41.10163	3140.688	36.40123
41.15574	3135.184	34.59547
41.20984	3135.418	45.61525
41.26395	3127.345	37.67212
41.31805	3124.274	44.12827
41.37216	3123.681	43.0961
41.42626	3122.037	37.95089
41.48037	3116.722	47.39053
41.53447	3115.437	42.24685
41.58858	3113.308	42.55943
41.64268	3108.599	38.89367
41.69679	3105.812	41.50431
41.7509	3109.46	41.622
41.805	3103.081	38.25348
41.85911	3099.351	38.67976
41.91322	3096.882	39.13533
41.96732	3094.172	41.94304
42.02143	3091.077	41.08691
42.07553	3089.633	37.80406
42.12964	3085.027	38.18699
42.18375	3083.626	36.89765
42.23785	3079.76	35.44441
42.29196	3079.644	36.71455
42.34606	3074.747	40.77669
42.40017	3072.936	44.16656
42.45427	3069.47	42.98019
42.50838	3066.341	40.07317
42.56248	3061.305	44.84656
42.61659	3058.882	43.64366
42.6707	3058.135	43.88459
42.7248	3055.408	49.28114
42.77891	3050.775	48.76525
42.83302	3045.712	46.32047
42.88712	3045.552	43.14555
42.94123	3043.333	40.9658
42.99533	3038.887	38.81893
43.04944	3036.661	38.54691
43.10354	3033.141	37.50121
43.15765	3030.486	37.07397
43.21175	3028.128	41.27172
43.26586	3022.833	41.74457
43.31997	3026.177	39.94454
43.37407	3019.411	42.47239
43.42818	3017.456	41.76229
43.48228	3015.093	36.17513
43.53639	3011.8	35.64643
43.5905	3008.045	36.10207
43.6446	3007.036	37.24961
43.69871	3003.746	35.35997
43.75281	3002.837	33.69119
43.80692	2998.129	38.65968
43.86102	3001.561	34.06203
43.91513	2991.426	37.01655
43.96923	2991.622	37.07398
44.02334	2985.539	36.46824
44.07745	2986.897	34.66412
44.13155	2983.597	32.65461
44.18566	2982.295	37.58147
44.23977	2976.902	39.6012
44.29387	2976.108	36.42921
44.34798	2967.564	39.05748
44.40208	2975.581	34.62927
44.45619	2966.683	37.48258
44.51029	2962.77	37.60951
44.5644	2960.662	42.33696
44.6185	2962.258	36.39943
44.67261	2951.273	41.82746
44.72672	2953.683	40.3708
44.78082	2948.104	42.9838
44.83493	2951.001	36.73822
44.88903	2939.557	37.25976
44.94314	2945.414	44.28852
44.99725	2941.11	44.92633
45.05135	2938.172	37.44849
45.10546	2930.209	35.28546
45.15956	2933.634	42.23222
45.21367	2927.416	44.39625
45.26778	2931.111	38.81142
45.32188	2921.965	38.96096
45.37599	2919.485	37.04891
45.43009	2911.148	37.23149
45.4842	2918.536	32.54433
45.5383	2912.601	37.58699
45.59241	2912.578	35.67039
45.64651	2907.179	41.2314
45.70062	2906.246	40.62538
45.75473	2900.101	40.64749
45.80883	2904.625	37.86299
45.86294	2892.514	40.19478
45.91705	2896.337	37.76104
45.97115	2891.216	31.95373
46.02526	2894.176	38.40418
46.07936	2884.108	36.2305
46.13347	2885.634	37.80632
46.18757	2878.002	34.74078
46.24168	2879.354	35.24743
46.29578	2874.133	42.41408
46.34989	2875.004	38.07256
46.404	2866.386	38.69217
46.4581	2869.261	37.62204
46.51221	2861.902	36.45236
46.56631	2861.15	38.97062
46.62042	2854.608	40.74351
46.67453	2855.218	35.24323
46.72863	2849.146	35.81852
46.78274	2849.469	34.50177
46.83684	2845.655	36.34904
46.89095	2846.101	34.5045
46.94505	2843.632	37.82791
46.99916	2844.398	37.68843
47.05326	2838.862	40.00327
47.10737	2835.724	40.65727
47.16148	2833.278	35.44481
47.21558	2829.867	32.87955
47.26969	2825.552	32.67482
47.3238	2823.094	31.21941
47.3779	2819.301	33.8196
47.43201	2818.292	32.40396
47.48611	2815.283	31.59425
47.54022	2815.042	33.15158
47.59433	2810.568	34.9629
47.64843	2805.561	34.39542
47.70254	2805.358	34.81058
47.75664	2803.456	37.74426
47.81075	2802.883	36.3582
47.86485	2800.787	36.82027
47.91896	2796.923	40.39358
47.97306	2792.448	42.30545
48.02717	2792.788	35.16771
48.08128	2788.497	33.45472
48.13538	2786.915	39.36124
48.18949	2783.161	35.59004
48.2436	2783.802	32.87398
48.2977	2777.901	36.30234
48.35181	2773.954	37.82718
48.40591	2772.429	38.11703
48.46002	2773.178	36.12466
48.51412	2766.247	37.60601
48.56823	2765.678	33.34825
48.62233	2757.913	33.85839
48.67644	2763.302	38.93097
48.73055	2758.145	37.87188
48.78465	2755.576	36.8414
48.83876	2751.315	35.79933
48.89286	2752.656	33.70914
48.94697	2748.487	37.70571
49.00108	2748.067	37.13677
49.05518	2743.24	38.1414
49.10929	2744.513	34.06117
49.16339	2734.267	41.55405
49.2175	2736.86	35.98483
49.2716	2731.109	34.20935
49.32571	2731.952	37.17665
49.37981	2725.74	33.29082
49.43392	2727.926	31.20359
49.48803	2722.979	36.08797
49.54213	2721.008	36.99436
49.59624	2714.239	33.1969
49.65034	2718.435	33.60157
49.70445	2708.658	30.82402
49.75856	2714.023	34.77097
49.81266	2712.549	35.50151
49.86677	2709.151	30.44763
49.92087	2701.574	36.0709
49.97498	2697.363	29.90916
50.02908	2695.291	34.74856
50.08319	2694.944	37.27766
50.13729	2687.005	34.12341
50.1914	2693.49	36.98367
50.24551	2683.159	34.72222
50.29961	2680.813	38.66716
50.35372	2678.3	34.48041
50.40783	2679.794	29.94639
50.46193	2673.251	31.95472
50.51604	2676.095	33.75808
50.57014	2669.799	31.94834
50.62425	2673.883	32.31319
50.67836	2661.713	35.3692
50.73246	2665.194	36.84644
50.78657	2658.238	34.07504
50.84067	2664.704	33.63597
50.89478	2654.169	36.60721
50.94888	2649.547	35.52387
51.00299	2646.042	36.16316
51.05709	2652.676	32.68954
51.1112	2641.198	28.9635
51.16531	2644.885	30.64867
51.21941	2639.523	33.3013
51.27352	2638.785	32.01718
51.32763	2635.06	29.48405
51.38173	2633.102	28.90311
51.43584	2628.696	32.31067
51.48994	2627.915	33.88931
51.54405	2625.066	33.02436
51.59815	2624.72	33.29222
51.65226	2622.359	30.3138
51.70636	2621.759	31.8042
51.76047	2617.56	34.73101
51.81458	2615.872	32.90292
51.86868	2611.611	33.24717
51.92279	2608.07	32.58097
51.97689	2607.21	33.0955
52.031	2603.813	35.21244
52.08511	2599.153	35.03262
52.13921	2597.703	35.23425
52.19332	2593.329	35.73461
52.24742	2590.798	35.24556
52.30153	2589.581	34.64181
52.35563	2582.972	36.65256
52.40974	2582.794	36.0327
52.46384	2578.165	30.58651
52.51795	2580.939	30.16084
52.57206	2577.843	36.39655
52.62616	2577.728	34.78798
52.68027	2572.698	33.0655
52.73438	2571.045	34.77939
52.78848	2563.82	33.20021
52.84259	2566.457	32.58782
52.89669	2557.388	35.23167
52.9508	2564.117	37.73591
53.00491	2552.835	37.23378
53.05901	2560.14	35.15361
53.11312	2548.82	34.42168
53.16722	2553.511	31.12051
53.22133	2544.95	33.272
53.27543	2552.106	31.88246
53.32954	2541.104	30.31304
53.38364	2544.723	34.25805
53.43775	2537.375	36.46176
53.49186	2540.317	30.62107
53.54596	2533.242	33.37906
53.60007	2533.545	31.01202
53.65417	2524.621	33.78046
53.70828	2527.435	34.76239
53.76239	2522.053	38.8884
53.81649	2523.379	36.93496
53.8706	2519.183	32.3668
53.9247	2516.479	31.61408
53.97881	2514.048	34.85546
54.03291	2512.285	35.39486
54.08702	2509.913	32.8575
54.14112	2508.823	29.67717
54.19523	2506.637	28.65676
54.24934	2500.785	32.12312
54.30344	2501.772	35.41447
54.35755	2495.939	33.75925
54.41166	2495.868	30.80806
54.46576	2489.461	29.2864
54.51987	2493.063	30.10894
54.57397	2484.409	27.75203
54.62808	2486.06	26.82955
54.68218	2478.287	25.97822
54.73629	2486.598	31.6181
54.79039	2473.104	28.69768
54.8445	2475.988	29.55875
54.89861	2468.765	34.17083
54.95271	2471.624	29.11449
55.00682	2463.485	31.82455
55.06092	2466.624	30.39592
55.11503	2462.083	30.15112
55.16914	2464.185	37.04531
55.22324	2458.896	31.8753
55.27735	2458.588	31.42318
55.33145	2451.889	31.73383
55.38556	2457.756	30.6164
55.43966	2446.715	31.34521
55.49377	2450.631	25.8647
55.54787	2440.93	32.03635
55.60198	2448.138	25.9934
55.65609	2437.702	27.48875
55.71019	2441.707	30.47644
55.7643	2430.791	32.61673
55.81841	2437.176	36.30898
55.87251	2430.555	29.9263
55.92662	2430.608	32.89444
55.98072	2425.185	33.36977
56.03483	2425.407	32.19868
56.08894	2422.104	31.94448
56.14304	2422.878	31.80225
56.19715	2417.667	34.14289
56.25125	2416.019	32.13445
56.30536	2413.648	32.01306
56.35946	2411.099	30.65605
56.41357	2407.037	28.90571
56.46767	2405.412	29.33005
56.52178	2404.226	27.78634
56.57589	2397.464	27.82915
56.62999	2398.197	30.63284
56.6841	2393.996	33.24352
56.7382	2393.039	29.64537
56.79231	2387.579	27.78424
56.84642	2390.698	31.56269
56.90052	2384.939	29.82857
56.95463	2389.052	32.10525
57.00873	2381.476	29.48853
57.06284	2385.757	29.42351
57.11694	2376.01	35.35635
57.17105	2378.223	34.31813
57.22515	2372.174	37.00229
57.27926	2372.913	36.40822
57.33337	2363.565	30.39346
57.38747	2368.092	29.42948
57.44158	2361.428	30.1747
57.49569	2365.669	31.16626
57.54979	2360.427	33.50829
57.6039	2361.47	32.92348
57.658	2350.322	30.14617
57.71211	2353.394	28.94292
57.76621	2344.637	28.6994
57.82032	2350.593	31.20681
57.87442	2342.008	32.51947
57.92853	2347.089	30.7863
57.98264	2335.447	31.67244
58.03674	2343.519	28.20322
58.09085	2335.238	29.28664
58.14495	2335.829	31.54602
58.19906	2332.096	33.13723
58.25317	2330.762	31.18949
58.30727	2326.049	29.36843
58.36138	2325.913	29.28511
58.41549	2318.808	27.61393
58.46959	2321.236	26.65755
58.5237	2316.602	29.5037
58.5778	2315.527	25.52428
58.63191	2313.607	23.41639
58.68601	2314.32	26.25347
58.74012	2310.328	29.82686
58.79422	2305.798	28.87664
58.84833	2306.067	25.65239
58.90244	2305.001	26.79447
58.95654	2301.29	29.06904
59.01065	2299.365	27.50746
59.06475	2296.784	28.60672
59.11886	2293.059	31.50994
59.17297	2291.725	30.21873
59.22707	2290.112	27.95981
59.28118	2291.823	27.62919
59.33528	2289.446	29.55104
59.38939	2285.905	28.41172
59.44349	2281.853	29.20315
59.4976	2280.501	29.96535
59.5517	2275.676	31.21832
59.60581	2274.835	27.60367
59.65992	2270.713	27.98982
59.71402	2273.656	28.66628
59.76813	2267.733	29.59367
59.82224	2268.838	32.6731
59.87634	2262.833	27.8679
59.93045	2262.215	24.10899
59.98455	2256.475	28.93554
60.03866	2259.654	30.12106
60.09276	2252.58	33.59708
60.14687	2254.228	31.35501
60.20097	2250.207	31.59289
60.25508	2251.758	25.47299
60.30919	2246.495	25.36213
60.36329	2249.251	25.08836
60.4174	2237.069	30.30493
