T[Â°C]	350nm [counts / mm]	S.D.	First derivative	S.D. of first derivative
19.99894	6828.13		-95.94145	
20.05293	6822.418		-95.93444	
20.10692	6816.704		-95.92775	
20.16092	6810.987		-95.92138	
20.21491	6805.27		-95.91534	
20.2689	6799.553		-95.90961	
20.32289	6793.836		-95.90421	
20.37688	6788.124		-95.89911	
20.43088	6782.415		-95.8943	
20.48487	6776.713		-95.88979	
20.53886	6771.02		-95.88554	
20.59285	6765.335		-95.88155	
20.64684	6759.661		-95.8778	
20.70083	6753.999		-95.87427	
20.75483	6748.348		-95.87092	
20.80882	6742.708		-95.86773	
20.86281	6737.076		-95.86467	
20.9168	6731.444		-95.86171	
20.97079	6725.789		-95.85881	
21.02478	6720.383		-95.85593	
21.07878	6715.075		-95.85302	
21.13277	6709.875		-95.85005	
21.18676	6704.777		-95.84696	
21.24075	6699.771		-95.8437	
21.29474	6694.834		-95.84024	
21.34873	6689.941		-95.83651	
21.40273	6685.068		-95.83245	
21.45672	6680.209		-95.82802	
21.51071	6675.362		-95.82314	
21.5647	6670.53		-95.81779	
21.61869	6665.708		-95.8119	
21.67269	6660.887		-95.80542	
21.72668	6656.054		-95.79834	
21.78067	6651.191		-95.7906	
21.83466	6646.28		-95.7822	
21.88865	6641.309		-95.7731	
21.94264	6636.282		-95.76331	
21.99664	6631.21		-95.75285	
22.05063	6626.102		-95.74173	
22.10462	6620.956		-95.73003	
22.15861	6615.766		-95.71785	
22.2126	6610.518		-95.70532	
22.26659	6605.2		-95.69266	
22.32059	6599.804		-95.68014	
22.37458	6594.334		-95.66816	
22.42857	6588.812		-95.65729	
22.48256	6583.267		-95.64824	
22.53655	6577.732		-95.64196	
22.59055	6572.23		-95.63944	
22.64454	6566.778		-95.63064	
22.69853	6561.389		-95.62171	
22.75252	6556.067		-95.61241	
22.80651	6550.794		-95.60242	
22.8605	6545.55		-95.59141	
22.9145	6540.317		-95.57899	
22.96849	6535.087		-95.56478	
23.02248	6529.865		-95.54834	
23.07647	6524.661		-95.52924	
23.13046	6519.484		-95.50706	
23.18445	6514.345		-95.48145	
23.23845	6509.246		-95.45215	
23.29244	6504.178		-95.41895	
23.34643	6499.126		-95.38175	
23.40042	6494.08		-95.34055	
23.45441	6489.029		-95.29536	
23.5084	6483.974		-95.2463	
23.5624	6478.926		-95.19354	
23.61639	6473.901		-95.13732	
23.67038	6468.905		-95.07795	
23.72437	6463.925		-95.01579	
23.77836	6458.933		-94.95123	
23.83236	6453.901		-94.88471	
23.88635	6448.811		-94.81673	
23.94034	6443.651		-94.74784	
23.99433	6438.429		-94.67863	
24.04832	6433.162		-94.60974	
24.10231	6427.871		-94.5418	
24.15631	6422.582		-94.47543	
24.2103	6417.321		-94.41118	
24.26429	6412.104		-94.3495	
24.31828	6406.925		-94.29079	
24.37227	6401.768		-94.23535	
24.42626	6396.611		-94.18342	
24.48026	6391.442		-94.13518	
24.53425	6386.256		-94.09073	
24.58824	6381.053		-94.0501	
24.64223	6375.841		-94.01324	
24.69622	6370.642		-93.97995	
24.75021	6365.476		-93.95002	
24.8042	6360.362		-93.92313	
24.8582	6355.311		-93.89894	
24.91219	6350.329		-93.87708	
24.96618	6345.414		-93.85719	
25.02017	6340.558		-93.83891	
25.07417	6335.758		-93.8219	
25.12816	6331.013		-93.80576	
25.18215	6326.31		-93.79007	
25.23614	6321.631		-93.77445	
25.29013	6316.96		-93.75856	
25.34412	6312.277		-93.74207	
25.39812	6307.561		-93.72473	
25.45211	6302.791		-93.7064	
25.5061	6297.945		-93.68701	
25.56009	6293.021		-93.66658	
25.61408	6288.038		-93.64517	
25.66807	6283.012		-93.62291	
25.72206	6277.963		-93.59992	
25.77606	6272.902		-93.57636	
25.83005	6267.83		-93.55238	
25.88404	6262.732		-93.52814	
25.93803	6257.599		-93.50386	
25.99202	6252.427		-93.47977	
26.04602	6247.212		-93.45611	
26.10001	6241.952		-93.43314	
26.154	6236.647		-93.41109	
26.20799	6231.31		-93.3901	
26.26198	6225.959		-93.37016	
26.31598	6220.611		-93.35117	
26.36997	6215.281		-93.33295	
26.42396	6209.977		-93.31522	
26.47795	6204.711		-93.29769	
26.53194	6199.492		-93.28005	
26.58593	6194.317		-93.26196	
26.63993	6189.188		-93.24299	
26.69392	6184.093		-93.22269	
26.74791	6179.025		-93.20063	
26.8019	6173.983		-93.17632	
26.85589	6168.973		-93.14931	
26.90988	6163.995		-93.1192	
26.96387	6159.042		-93.08572	
27.01787	6154.114		-93.04871	
27.07186	6149.204		-93.00813	
27.12585	6144.304		-92.96404	
27.17984	6139.409		-92.91659	
27.23383	6134.518		-92.86604	
27.28783	6129.619		-92.8127	
27.34182	6124.703		-92.75697	
27.39581	6119.77		-92.69922	
27.4498	6114.814		-92.63991	
27.50379	6109.825		-92.57944	
27.55779	6104.791		-92.51827	
27.61178	6099.707		-92.45679	
27.66577	6094.588		-92.39536	
27.71976	6089.455		-92.33432	
27.77375	6084.321		-92.2739	
27.82774	6079.194		-92.21435	
27.88173	6074.076		-92.15585	
27.93573	6068.973		-92.09856	
27.98972	6063.887		-92.04266	
28.04371	6058.823		-91.98827	
28.0977	6053.792		-91.93558	
28.15169	6048.802		-91.88474	
28.20568	6043.855		-91.83591	
28.25968	6038.948		-91.78915	
28.31367	6034.078		-91.7445	
28.36766	6029.241		-91.7019	
28.42165	6024.429		-91.6613	
28.47564	6019.636		-91.62261	
28.52964	6014.861		-91.58577	
28.58363	6010.108		-91.55075	
28.63762	6005.365		-91.51752	
28.69161	6000.615		-91.48605	
28.7456	5995.852		-91.45628	
28.79959	5991.077		-91.42818	
28.85359	5986.295		-91.40167	
28.90758	5981.512		-91.37666	
28.96157	5976.735		-91.3531	
29.01556	5971.969		-91.33095	
29.06955	5967.2		-91.31023	
29.12354	5962.416		-91.29103	
29.17754	5957.612		-91.27353	
29.23153	5952.787		-91.25798	
29.28552	5947.931		-91.24474	
29.33951	5943.039		-91.23421	
29.3935	5938.11		-91.2268	
29.44749	5933.146		-91.22284	
29.50149	5928.141		-91.22261	
29.55548	5923.087		-91.22626	
29.60947	5917.985		-91.23386	
29.66346	5912.851		-91.24532	
29.71745	5907.699		-91.26046	
29.77145	5902.542		-91.27898	
29.82544	5897.395		-91.30042	
29.87943	5892.269		-91.3242	
29.93342	5887.174		-91.34963	
29.98741	5882.117		-91.37592	
30.0414	5877.101		-91.40219	
30.0954	5872.116		-91.4275	
30.14939	5867.152		-91.4509	
30.20338	5862.199		-91.47148	
30.25737	5857.251		-91.48831	
30.31136	5852.306		-91.50052	
30.36535	5847.368		-91.50732	
30.41935	5842.438		-91.50802	
30.47334	5837.521		-91.50204	
30.52733	5832.624		-91.48895	
30.58132	5827.754		-91.46845	
30.63531	5822.915		-91.44042	
30.6893	5818.106		-91.40483	
30.7433	5813.321		-91.36177	
30.79729	5808.553		-91.31139	
30.85128	5803.8		-91.25391	
30.90527	5799.059		-91.18961	
30.95926	5794.321		-91.1188	
31.01326	5789.573		-91.04189	
31.06725	5784.798		-90.95936	
31.12124	5779.978		-90.87177	
31.17523	5775.096		-90.77977	
31.22922	5770.144		-90.68408	
31.28321	5765.124		-90.58556	
31.33721	5760.04		-90.48512	
31.3912	5754.906		-90.38371	
31.44519	5749.735		-90.2823	
31.49918	5744.536		-90.18179	
31.55317	5739.323		-90.08296	
31.60716	5734.107		-89.98653	
31.66116	5728.897		-89.8931	
31.71515	5723.693		-89.80317	
31.76914	5718.498		-89.71712	
31.82313	5713.307		-89.63517	
31.87712	5708.115		-89.55737	
31.93111	5702.937		-89.4836	
31.98511	5697.797		-89.41364	
32.0391	5692.725		-89.34711	
32.09309	5687.743		-89.28355	
32.14708	5682.87		-89.22246	
32.20107	5678.105		-89.16325	
32.25507	5673.439		-89.10537	
32.30906	5668.862		-89.04826	
32.36305	5664.358		-88.99144	
32.41704	5659.913		-88.93456	
32.47103	5655.512		-88.87735	
32.52502	5651.137		-88.81962	
32.57901	5646.771		-88.76126	
32.63301	5642.404		-88.70218	
32.687	5638.02		-88.64238	
32.74099	5633.609		-88.58189	
32.79498	5629.169		-88.52076	
32.84898	5624.696		-88.45908	
32.90297	5620.185		-88.39697	
32.95696	5615.629		-88.33447	
33.01095	5611.033		-88.27167	
33.06494	5606.407		-88.20862	
33.11893	5601.759		-88.14538	
33.17292	5597.088		-88.08202	
33.22692	5592.388		-88.01862	
33.28091	5587.652		-87.95527	
33.3349	5582.881		-87.89211	
33.38889	5578.079		-87.82935	
33.44288	5573.248		-87.76725	
33.49688	5568.392		-87.70605	
33.55087	5563.519		-87.64603	
33.60486	5558.634		-87.58745	
33.65885	5553.746		-87.53054	
33.71284	5548.863		-87.47554	
33.76683	5543.983		-87.42263	
33.82083	5539.105		-87.37199	
33.87482	5534.231		-87.3237	
33.92881	5529.357		-87.27779	
33.9828	5524.487		-87.23418	
34.03679	5519.631		-87.19271	
34.09079	5514.81		-87.15319	
34.14478	5510.032		-87.11534	
34.19877	5505.303		-87.07883	
34.25276	5500.618		-87.04329	
34.30675	5495.964		-87.00828	
34.36074	5491.333		-86.97338	
34.41473	5486.712		-86.93822	
34.46873	5482.092		-86.90247	
34.52272	5477.461		-86.86589	
34.57671	5472.798		-86.8283	
34.6307	5468.087		-86.78954	
34.68469	5463.323		-86.74952	
34.73869	5458.516		-86.70817	
34.79268	5453.685		-86.66548	
34.84667	5448.839		-86.62148	
34.90066	5443.984		-86.57622	
34.95465	5439.12		-86.52969	
35.00864	5434.247		-86.48186	
35.06264	5429.376		-86.43269	
35.11663	5424.523		-86.38212	
35.17062	5419.699		-86.33005	
35.22461	5414.913		-86.27638	
35.2786	5410.165		-86.22104	
35.3326	5405.453		-86.16393	
35.38659	5400.769		-86.10497	
35.44058	5396.113		-86.04411	
35.49457	5391.487		-85.98135	
35.54856	5386.9		-85.91677	
35.60255	5382.365		-85.85056	
35.65654	5377.886		-85.78302	
35.71054	5373.463		-85.71455	
35.76453	5369.095		-85.6457	
35.81852	5364.775		-85.57706	
35.87251	5360.491		-85.5094	
35.9265	5356.224		-85.44344	
35.9805	5351.957		-85.37994	
36.03449	5347.677		-85.31962	
36.08848	5343.376		-85.26312	
36.14247	5339.051		-85.21104	
36.19646	5334.696		-85.16389	
36.25045	5330.304		-85.12203	
36.30445	5325.869		-85.08573	
36.35844	5321.383		-85.05514	
36.41243	5316.839		-85.03029	
36.46642	5312.24		-85.01114	
36.52041	5307.584		-84.99759	
36.57441	5302.871		-84.98952	
36.6284	5298.104		-84.98677	
36.68239	5293.279		-84.98911	
36.73638	5288.408		-84.99625	
36.79037	5283.51		-85.0079	
36.84436	5278.615		-85.02372	
36.89835	5273.75		-85.04337	
36.95235	5268.928		-85.06644	
37.00634	5264.16		-85.09245	
37.06033	5259.445		-85.12086	
37.11432	5254.779		-85.15105	
37.16831	5250.162		-85.18233	
37.22231	5245.591		-85.21394	
37.2763	5241.06		-85.24503	
37.33029	5236.563		-85.27473	
37.38428	5232.093		-85.30209	
37.43827	5227.646		-85.32611	
37.49226	5223.226		-85.34587	
37.54626	5218.835		-85.36047	
37.60025	5214.467		-85.36918	
37.65424	5210.106		-85.37139	
37.70823	5205.739		-85.36666	
37.76222	5201.361		-85.35473	
37.81622	5196.968		-85.33548	
37.8702	5192.554		-85.30902	
37.9242	5188.111		-85.27562	
37.97819	5183.638		-85.23573	
38.03218	5179.131		-85.18991	
38.08617	5174.579		-85.13886	
38.14016	5169.967		-85.08332	
38.19416	5165.278		-85.02406	
38.24815	5160.505		-84.96187	
38.30214	5155.649		-84.89748	
38.35613	5150.717		-84.83156	
38.41012	5145.721		-84.76472	
38.46412	5140.685		-84.69743	
38.51811	5135.639		-84.63004	
38.5721	5130.618		-84.5629	
38.62609	5125.643		-84.4962	
38.68008	5120.72		-84.43007	
38.73407	5115.843		-84.36454	
38.78807	5111.007		-84.2996	
38.84206	5106.203		-84.23523	
38.89605	5101.426		-84.17139	
38.95004	5096.679		-84.10806	
39.00403	5091.969		-84.04523	
39.05803	5087.311		-83.98294	
39.11201	5082.711		-83.9212	
39.16601	5078.175		-83.85998	
39.22	5073.713		-83.79926	
39.27399	5069.327		-83.73901	
39.32798	5065.008		-83.67918	
39.38197	5060.732		-83.61977	
39.43597	5056.479		-83.56073	
39.48996	5052.238		-83.50211	
39.54395	5048.017		-83.44395	
39.59794	5043.817		-83.38631	
39.65193	5039.636		-83.32925	
39.70592	5035.473		-83.27285	
39.75992	5031.323		-83.21721	
39.81391	5027.175		-83.1624	
39.8679	5023.007		-83.10857	
39.92189	5018.798		-83.05598	
39.97588	5014.535		-83.00492	
40.02988	5010.203		-82.95591	
40.08387	5005.803		-82.90948	
40.13786	5001.349		-82.86633	
40.19185	4996.856		-82.82714	
40.24584	4992.337		-82.7926	
40.29984	4987.806		-82.76339	
40.35382	4983.273		-82.74006	
40.40782	4978.737		-82.72303	
40.46181	4974.192		-82.71261	
40.5158	4969.64		-82.70887	
40.56979	4965.083		-82.71178	
40.62378	4960.53		-82.72105	
40.67778	4955.996		-82.73621	
40.73177	4951.486		-82.75668	
40.78576	4947.007		-82.78163	
40.83975	4942.56		-82.81022	
40.89374	4938.145		-82.84142	
40.94773	4933.762		-82.87425	
41.00173	4929.414		-82.90769	
41.05572	4925.096		-82.94081	
41.10971	4920.79		-82.97273	
41.1637	4916.484		-83.00262	
41.21769	4912.176		-83.02971	
41.27169	4907.868		-83.05333	
41.32568	4903.556		-83.07294	
41.37967	4899.23		-83.08813	
41.43366	4894.878		-83.0986	
41.48765	4890.489		-83.10423	
41.54165	4886.051		-83.10496	
41.59563	4881.549		-83.10087	
41.64963	4876.975		-83.09208	
41.70362	4872.335		-83.07874	
41.75761	4867.649		-83.06104	
41.8116	4862.937		-83.03922	
41.86559	4858.224		-83.0135	
41.91959	4853.527		-82.98412	
41.97358	4848.848		-82.95132	
42.02757	4844.174		-82.91544	
42.08156	4839.486		-82.87684	
42.13555	4834.77		-82.83588	
42.18954	4830.015		-82.793	
42.24354	4825.224		-82.74857	
42.29753	4820.411		-82.703	
42.35152	4815.599		-82.65668	
42.40551	4810.811		-82.60992	
42.4595	4806.06		-82.56303	
42.5135	4801.354		-82.5162	
42.56749	4796.693		-82.46961	
42.62148	4792.08		-82.42328	
42.67547	4787.504		-82.3772	
42.72946	4782.955		-82.33121	
42.78345	4778.429		-82.28506	
42.83744	4773.933		-82.23841	
42.89144	4769.479		-82.19073	
42.94543	4765.077		-82.14146	
42.99942	4760.737		-82.08997	
43.05341	4756.459		-82.03564	
43.1074	4752.237		-81.97788	
43.1614	4748.062		-81.91615	
43.21539	4743.921		-81.84998	
43.26938	4739.803		-81.77911	
43.32337	4735.69		-81.70335	
43.37736	4731.578		-81.62275	
43.43135	4727.462		-81.53748	
43.48535	4723.347		-81.44794	
43.53934	4719.223		-81.35462	
43.59333	4715.072		-81.25816	
43.64732	4710.886		-81.15921	
43.70131	4706.662		-81.0585	
43.75531	4702.406		-80.95681	
43.8093	4698.124		-80.85494	
43.86329	4693.823		-80.75362	
43.91728	4689.521		-80.65357	
43.97127	4685.23		-80.55539	
44.02526	4680.948		-80.45967	
44.07925	4676.666		-80.36691	
44.13325	4672.37		-80.27749	
44.18724	4668.051		-80.19179	
44.24123	4663.692		-80.11006	
44.29522	4659.282		-80.03248	
44.34921	4654.81		-79.95909	
44.40321	4650.278		-79.88985	
44.4572	4645.701		-79.82456	
44.51119	4641.11		-79.76299	
44.56518	4636.531		-79.70477	
44.61917	4631.986		-79.64959	
44.67316	4627.49		-79.59702	
44.72716	4623.052		-79.5467	
44.78115	4618.668		-79.4982	
44.83514	4614.331		-79.45106	
44.88913	4610.028		-79.40479	
44.94312	4605.747		-79.35881	
44.99712	4601.478		-79.31252	
45.05111	4597.214		-79.26524	
45.1051	4592.946		-79.21632	
45.15909	4588.671		-79.16511	
45.21308	4584.387		-79.11104	
45.26707	4580.093		-79.05371	
45.32106	4575.791		-78.9929	
45.37506	4571.492		-78.92857	
45.42905	4567.221		-78.8609	
45.48304	4562.999		-78.79023	
45.53703	4558.831		-78.71701	
45.59102	4554.715		-78.6418	
45.64502	4550.641		-78.56522	
45.69901	4546.59		-78.48792	
45.753	4542.541		-78.41062	
45.80699	4538.465		-78.33401	
45.86098	4534.336		-78.25876	
45.91497	4530.14		-78.18549	
45.96897	4525.868		-78.11479	
46.02296	4521.525		-78.04716	
46.07695	4517.122		-77.98306	
46.13094	4512.687		-77.92288	
46.18493	4508.249		-77.867	
46.23893	4503.841		-77.8158	
46.29292	4499.483		-77.76961	
46.34691	4495.182		-77.72861	
46.4009	4490.937		-77.69296	
46.45489	4486.749		-77.66261	
46.50888	4482.609		-77.63745	
46.56287	4478.495		-77.61722	
46.61687	4474.384		-77.60155	
46.67086	4470.262		-77.59006	
46.72485	4466.116		-77.58222	
46.77884	4461.942		-77.57749	
46.83283	4457.751		-77.57526	
46.88683	4453.563		-77.57486	
46.94082	4449.408		-77.57565	
46.99481	4445.313		-77.57697	
47.0488	4441.293		-77.5782	
47.10279	4437.352		-77.57871	
47.15678	4433.477		-77.57795	
47.21078	4429.662		-77.57542	
47.26477	4425.891		-77.57074	
47.31876	4422.139		-77.56364	
47.37275	4418.383		-77.55395	
47.42674	4414.595		-77.54156	
47.48074	4410.749		-77.5265	
47.53473	4406.824		-77.50882	
47.58872	4402.808		-77.48863	
47.64271	4398.7		-77.46612	
47.6967	4394.51		-77.4415	
47.75069	4390.255		-77.41503	
47.80468	4385.945		-77.38705	
47.85868	4381.586		-77.35786	
47.91267	4377.185		-77.32781	
47.96666	4372.745		-77.29721	
48.02065	4368.27		-77.26631	
48.07464	4363.77		-77.23531	
48.12864	4359.258		-77.20438	
48.18263	4354.744		-77.17362	
48.23662	4350.238		-77.14316	
48.29061	4345.743		-77.113	
48.3446	4341.263		-77.08311	
48.39859	4336.804		-77.05341	
48.45259	4332.377		-77.02372	
48.50658	4327.995		-76.99385	
48.56057	4323.666		-76.96352	
48.61456	4319.393		-76.93242	
48.66855	4315.165		-76.90022	
48.72255	4310.962		-76.86654	
48.77654	4306.765		-76.83094	
48.83053	4302.556		-76.79293	
48.88452	4298.336		-76.75195	
48.93851	4294.119		-76.70749	
48.9925	4289.922		-76.659	
49.04649	4285.765		-76.60604	
49.10049	4281.657		-76.54821	
49.15448	4277.594		-76.48518	
49.20847	4273.568		-76.41676	
49.26246	4269.568		-76.34284	
49.31645	4265.591		-76.26347	
49.37045	4261.629		-76.17879	
49.42444	4257.678		-76.08909	
49.47843	4253.727		-75.99474	
49.53242	4249.762		-75.8962	
49.58641	4245.772		-75.79398	
49.6404	4241.753		-75.68862	
49.6944	4237.707		-75.58073	
49.74839	4233.639		-75.47102	
49.80238	4229.552		-75.3602	
49.85637	4225.455		-75.24907	
49.91036	4221.355		-75.13841	
49.96436	4217.267		-75.02902	
50.01834	4213.202		-74.92168	
50.07234	4209.17		-74.81712	
50.12633	4205.176		-74.71611	
50.18032	4201.213		-74.61934	
50.23431	4197.276		-74.52742	
50.2883	4193.353		-74.44088	
50.3423	4189.423		-74.36009	
50.39629	4185.469		-74.28535	
50.45028	4181.476		-74.21682	
50.50427	4177.452		-74.15461	
50.55826	4173.415		-74.09875	
50.61226	4169.378		-74.04922	
50.66625	4165.352		-74.00595	
50.72024	4161.343		-73.96883	
50.77423	4157.347		-73.93767	
50.82822	4153.366		-73.91221	
50.88221	4149.402		-73.89211	
50.93621	4145.455		-73.87698	
50.9902	4141.52		-73.86639	
51.04419	4137.604		-73.85986	
51.09818	4133.711		-73.85696	
51.15217	4129.845		-73.85719	
51.20617	4125.997		-73.86005	
51.26015	4122.156		-73.86509	
51.31415	4118.314		-73.87187	
51.36814	4114.462		-73.88006	
51.42213	4110.596		-73.88935	
51.47612	4106.714		-73.89956	
51.53011	4102.818		-73.91052	
51.58411	4098.905		-73.92213	
51.6381	4094.974		-73.93424	
51.69209	4091.03		-73.94674	
51.74608	4087.076		-73.95948	
51.80007	4083.11		-73.9723	
51.85406	4079.125		-73.985	
51.90806	4075.114		-73.99737	
51.96205	4071.081		-74.00913	
52.01604	4067.025		-74.01998	
52.07003	4062.954		-74.02958	
52.12402	4058.876		-74.03754	
52.17802	4054.804		-74.04346	
52.23201	4050.752		-74.04684	
52.286	4046.724		-74.04716	
52.33999	4042.717		-74.0438	
52.39398	4038.72		-74.0361	
52.44798	4034.724		-74.0234	
52.50196	4030.728		-74.00507	
52.55596	4026.726		-73.98053	
52.60995	4022.71		-73.94926	
52.66394	4018.667		-73.91083	
52.71793	4014.582		-73.86486	
52.77192	4010.452		-73.81105	
52.82592	4006.285		-73.74915	
52.87991	4002.102		-73.67896	
52.9339	3997.92		-73.60039	
52.98789	3993.75		-73.51347	
53.04188	3989.607		-73.4184	
53.09587	3985.501		-73.31548	
53.14987	3981.438		-73.20514	
53.20386	3977.414		-73.08789	
53.25785	3973.422		-72.96434	
53.31184	3969.455		-72.83514	
53.36583	3965.503		-72.70107	
53.41983	3961.565		-72.56287	
53.47382	3957.645		-72.42143	
53.52781	3953.731		-72.27762	
53.5818	3949.801		-72.13235	
53.63579	3945.836		-71.98654	
53.68979	3941.83		-71.84106	
53.74377	3937.784		-71.69672	
53.79777	3933.704		-71.55424	
53.85176	3929.602		-71.41428	
53.90575	3925.495		-71.27744	
53.95974	3921.4		-71.14418	
54.01373	3917.332		-71.01491	
54.06773	3913.302		-70.88993	
54.12172	3909.313		-70.76948	
54.17571	3905.367		-70.65369	
54.2297	3901.461		-70.5426	
54.28369	3897.595		-70.43618	
54.33768	3893.761		-70.33424	
54.39168	3889.953		-70.23654	
54.44567	3886.167		-70.14278	
54.49966	3882.404		-70.0526	
54.55365	3878.667		-69.96567	
54.60764	3874.965		-69.88161	
54.66164	3871.302		-69.80004	
54.71563	3867.689		-69.72054	
54.76962	3864.133		-69.64266	
54.82361	3860.647		-69.56599	
54.8776	3857.241		-69.49011	
54.93159	3853.921		-69.41467	
54.98558	3850.683		-69.33944	
55.03958	3847.515		-69.26427	
55.09357	3844.397		-69.18916	
55.14756	3841.306		-69.11415	
55.20155	3838.21		-69.0394	
55.25554	3835.075		-68.96518	
55.30954	3831.869		-68.89182	
55.36353	3828.574		-68.81977	
55.41752	3825.188		-68.74956	
55.47151	3821.712		-68.68172	
55.52551	3818.147		-68.61686	
55.57949	3814.49		-68.55559	
55.63349	3810.745		-68.49852	
55.68748	3806.924		-68.44627	
55.74147	3803.03		-68.39938	
55.79546	3799.07		-68.35832	
55.84945	3795.056		-68.3235	
55.90345	3791		-68.2952	
55.95744	3786.916		-68.27358	
56.01143	3782.823		-68.25867	
56.06542	3778.73		-68.25037	
56.11941	3774.641		-68.24843	
56.1734	3770.556		-68.25244	
