T[Â°C]	330nm [counts / mm]	S.D.	First derivative	S.D. of first derivative
20.00055	4698.969	55.58567	-61.56414	2.401245
20.05466	4695.392	55.7103	-61.5939	2.390313
20.10877	4691.82	55.82473	-61.62358	2.379207
20.16287	4688.254	55.92858	-61.65317	2.36792
20.21698	4684.692	56.02193	-61.68267	2.356449
20.27109	4681.136	56.10546	-61.71207	2.344793
20.3252	4677.584	56.18121	-61.74137	2.332956
20.3793	4674.036	56.25075	-61.77055	2.320932
20.43341	4670.493	56.31637	-61.79961	2.308727
20.48752	4666.954	56.38064	-61.82854	2.296341
20.54163	4663.419	56.44479	-61.85735	2.283779
20.59574	4659.888	56.51088	-61.886	2.271045
20.64984	4656.361	56.57975	-61.91451	2.258146
20.70395	4652.838	56.6526	-61.94286	2.245086
20.75806	4649.316	56.73007	-61.97105	2.231875
20.81217	4645.796	56.81059	-61.99908	2.21852
20.86627	4642.28	56.88631	-62.02692	2.205031
20.92038	4638.777	56.92666	-62.05459	2.19142
20.97449	4635.434	56.9125	-62.08207	2.177694
21.02859	4632.136	56.87438	-62.10937	2.163873
21.0827	4628.875	56.80534	-62.13647	2.149966
21.13681	4625.633	56.71166	-62.16338	2.135989
21.19092	4622.401	56.60636	-62.19009	2.12196
21.24503	4619.172	56.50491	-62.21661	2.107887
21.29913	4615.938	56.42245	-62.24294	2.093793
21.35324	4612.69	56.36875	-62.26909	2.079682
21.40735	4609.421	56.34832	-62.29507	2.065567
21.46146	4606.128	56.36081	-62.3209	2.051451
21.51556	4602.81	56.40175	-62.34658	2.037338
21.56967	4599.463	56.46623	-62.37214	2.023216
21.62378	4596.086	56.55636	-62.39759	2.009068
21.67789	4592.68	56.67237	-62.42296	1.994873
21.73199	4589.25	56.80601	-62.44828	1.980602
21.7861	4585.799	56.94169	-62.47356	1.966213
21.84021	4582.334	57.06276	-62.49885	1.951662
21.89432	4578.86	57.15603	-62.52417	1.936893
21.94843	4575.386	57.21511	-62.54956	1.921856
22.00253	4571.917	57.23914	-62.57507	1.906476
22.05664	4568.448	57.23108	-62.60075	1.890684
22.11075	4564.974	57.1992	-62.62665	1.874399
22.16486	4561.481	57.14727	-62.65284	1.857513
22.21896	4557.957	57.07588	-62.67941	1.839917
22.27307	4554.404	56.98561	-62.70641	1.821457
22.32718	4550.836	56.88159	-62.73392	1.801937
22.38129	4547.274	56.77771	-62.76202	1.781085
22.43539	4543.734	56.68977	-62.79074	1.75853
22.4895	4540.226	56.63265	-62.82007	1.733765
22.54361	4536.755	56.61166	-62.84993	1.706178
22.59772	4533.331	56.62395	-62.8801	1.67515
22.65182	4529.958	56.65622	-62.89684	1.627886
22.70593	4526.642	56.69193	-62.91108	1.579895
22.76004	4523.377	56.7186	-62.92264	1.531558
22.81415	4520.149	56.72933	-62.93138	1.48325
22.86825	4516.938	56.72812	-62.9372	1.435344
22.92236	4513.728	56.72542	-62.94006	1.388209
22.97647	4510.5	56.73128	-62.93991	1.342205
23.03058	4507.244	56.75862	-62.93677	1.297686
23.08468	4503.951	56.81512	-62.93067	1.254977
23.13879	4500.618	56.89875	-62.9217	1.21438
23.1929	4497.25	57.00095	-62.90996	1.176131
23.24701	4493.854	57.11455	-62.89562	1.140419
23.30112	4490.438	57.23257	-62.87888	1.107346
23.35522	4487.001	57.35114	-62.85994	1.076947
23.40933	4483.542	57.46518	-62.83901	1.049203
23.46344	4480.066	57.56968	-62.8163	1.024035
23.51755	4476.582	57.65645	-62.79198	1.001328
23.57165	4473.1	57.71778	-62.76623	0.9809355
23.62576	4469.622	57.75179	-62.73921	0.9626828
23.67987	4466.146	57.76079	-62.7111	0.9463712
23.73398	4462.666	57.74745	-62.68207	0.9318202
23.78808	4459.172	57.71321	-62.65227	0.9188458
23.84219	4455.658	57.65801	-62.62183	0.9072912
23.8963	4452.125	57.58353	-62.59085	0.8970209
23.95041	4448.584	57.49155	-62.55936	0.8879449
24.00451	4445.05	57.38379	-62.52738	0.8800162
24.05862	4441.54	57.26027	-62.49491	0.8732373
24.11273	4438.064	57.11613	-62.46194	0.867628
24.16684	4434.624	56.94662	-62.42846	0.8632342
24.22095	4431.208	56.75101	-62.39446	0.860089
24.27505	4427.812	56.53098	-62.35995	0.8581833
24.32916	4424.428	56.29077	-62.32491	0.8574606
24.38327	4421.058	56.03539	-62.28936	0.8578396
24.43737	4417.705	55.77624	-62.25331	0.8592311
24.49148	4414.369	55.5252	-62.21679	0.8615535
24.54559	4411.053	55.29364	-62.17981	0.8647506
24.5997	4407.75	55.09138	-62.14238	0.8687856
24.6538	4404.458	54.92952	-62.10448	0.8736593
24.70791	4401.178	54.81644	-62.06614	0.8793907
24.76202	4397.905	54.75535	-62.02732	0.8860148
24.81613	4394.638	54.74116	-61.98805	0.8935453
24.87024	4391.375	54.76417	-61.94834	0.9019807
24.92434	4388.113	54.80648	-61.90823	0.9113173
24.97845	4384.849	54.85286	-61.86777	0.9215379
25.03256	4381.577	54.89258	-61.827	0.9326221
25.08667	4378.293	54.91769	-61.78599	0.9445431
25.14077	4374.991	54.92274	-61.74486	0.9572733
25.19488	4371.669	54.90311	-61.70375	0.9708067
25.24899	4368.33	54.85837	-61.66284	0.985155
25.3031	4364.977	54.79393	-61.62236	1.000365
25.3572	4361.616	54.72376	-61.58252	1.016483
25.41131	4358.25	54.6659	-61.54354	1.033567
25.46542	4354.884	54.63823	-61.50562	1.051656
25.51953	4351.522	54.64807	-61.46894	1.070793
25.57364	4348.17	54.6928	-61.43364	1.091021
25.62774	4344.829	54.76166	-61.39986	1.112391
25.68185	4341.498	54.84037	-61.36769	1.134979
25.73596	4338.173	54.91115	-61.33724	1.158862
25.79007	4334.845	54.95319	-61.30852	1.184103
25.84417	4331.506	54.94948	-61.28148	1.210762
25.89828	4328.154	54.89458	-61.25602	1.23887
25.95239	4324.791	54.79552	-61.23193	1.268433
26.0065	4321.429	54.67051	-61.20899	1.299441
26.0606	4318.08	54.53693	-61.18694	1.331858
26.11471	4314.756	54.40884	-61.16553	1.36561
26.16882	4311.461	54.29695	-61.14449	1.400598
26.22293	4308.196	54.20781	-61.12357	1.436677
26.27703	4304.959	54.14435	-61.10254	1.473656
26.33114	4301.749	54.10745	-61.0812	1.511294
26.38525	4298.556	54.102	-61.05941	1.549302
26.43936	4295.374	54.131	-61.03709	1.587372
26.49346	4292.195	54.19251	-61.0142	1.625168
26.54757	4289.014	54.2779	-60.99068	1.662333
26.60168	4285.83	54.37771	-60.96651	1.698492
26.65579	4282.64	54.48031	-60.94164	1.733262
26.70989	4279.439	54.57325	-60.916	1.766245
26.764	4276.222	54.6438	-60.88958	1.797056
26.81811	4272.983	54.68681	-60.86234	1.825321
26.87222	4269.718	54.6966	-60.83431	1.850711
26.92632	4266.423	54.66811	-60.80556	1.872961
26.98043	4263.102	54.59754	-60.77618	1.891858
27.03454	4259.757	54.48366	-60.74628	1.907246
27.08865	4256.398	54.33125	-60.71596	1.91899
27.14276	4253.036	54.14699	-60.68535	1.926986
27.19686	4249.673	53.93373	-60.65455	1.931175
27.25097	4246.305	53.69176	-60.62363	1.93152
27.30508	4242.923	53.42267	-60.59264	1.928026
27.35919	4239.524	53.13352	-60.56159	1.920743
27.41329	4236.104	52.83775	-60.53045	1.909783
27.4674	4232.67	52.54328	-60.49917	1.895311
27.52151	4229.228	52.25489	-60.46769	1.877536
27.57562	4225.788	51.97698	-60.43592	1.856682
27.62972	4222.362	51.71292	-60.40382	1.83297
27.68383	4218.963	51.46407	-60.37128	1.806608
27.73794	4215.597	51.22656	-60.33826	1.777775
27.79205	4212.263	50.99131	-60.30463	1.746638
27.84616	4208.959	50.74967	-60.2703	1.713342
27.90026	4205.682	50.497	-60.23512	1.678041
27.95437	4202.428	50.23005	-60.19898	1.640893
28.00848	4199.205	49.94802	-60.16177	1.602064
28.06258	4196.015	49.65589	-60.12344	1.561722
28.11669	4192.855	49.36565	-60.08393	1.520021
28.1708	4189.712	49.09337	-60.04317	1.477105
28.22491	4186.57	48.85107	-60.00113	1.433108
28.27901	4183.422	48.64977	-59.95773	1.388128
28.33312	4180.268	48.5028	-59.91295	1.342238
28.38723	4177.114	48.4234	-59.86678	1.295483
28.44134	4173.963	48.41632	-59.81924	1.247903
28.49545	4170.817	48.4755	-59.77037	1.199561
28.54955	4167.671	48.58522	-59.72025	1.15056
28.60366	4164.517	48.7214	-59.669	1.10104
28.65777	4161.349	48.86094	-59.61678	1.051208
28.71188	4158.167	48.98452	-59.56377	1.001336
28.76598	4154.974	49.08531	-59.51017	0.9517941
28.82009	4151.768	49.16668	-59.45626	0.9030496
28.8742	4148.545	49.23708	-59.40231	0.8556814
28.92831	4145.298	49.30595	-59.34865	0.8103665
28.98241	4142.025	49.38165	-59.29559	0.7678439
29.03652	4138.729	49.46769	-59.24346	0.7288494
29.09063	4135.424	49.56942	-59.19253	0.6940503
29.14474	4132.123	49.68773	-59.14307	0.6639679
29.19884	4128.836	49.81858	-59.09528	0.6388991
29.25295	4125.569	49.94916	-59.04932	0.6188742
29.30706	4122.324	50.07106	-59.00529	0.6036286
29.36117	4119.1	50.17973	-58.96321	0.5926355
29.41528	4115.89	50.26972	-58.92308	0.585134
29.46938	4112.689	50.33083	-58.88482	0.5802336
29.52349	4109.496	50.36166	-58.84833	0.5769966
29.5776	4106.31	50.36948	-58.81343	0.5745586
29.63171	4103.136	50.36005	-58.77994	0.5721862
29.68581	4099.98	50.33643	-58.7476	0.5693116
29.73992	4096.844	50.29581	-58.71617	0.5655457
29.79403	4093.728	50.23644	-58.6854	0.5606786
29.84813	4090.63	50.16026	-58.65504	0.5546558
29.90224	4087.542	50.07396	-58.6249	0.5475755
29.95635	4084.463	49.9881	-58.5948	0.539637
30.01046	4081.389	49.91718	-58.56461	0.5311594
30.06457	4078.326	49.87651	-58.53422	0.5225467
30.11867	4075.277	49.87889	-58.50355	0.5142784
30.17278	4072.24	49.92899	-58.47252	0.506892
30.22689	4069.203	50.02061	-58.44104	0.5009601
30.281	4066.154	50.14168	-58.40903	0.4970469
30.3351	4063.081	50.27974	-58.37642	0.4956653
30.38921	4059.979	50.42588	-58.34309	0.4972098
30.44332	4056.845	50.57765	-58.30898	0.5019181
30.49743	4053.681	50.73292	-58.27407	0.5098544
30.55153	4050.485	50.88867	-58.23836	0.52088
30.60564	4047.259	51.0384	-58.20186	0.5346697
30.65975	4044.012	51.16896	-58.16464	0.5507383
30.71386	4040.757	51.26738	-58.12676	0.5685229
30.76797	4037.509	51.32342	-58.08833	0.5874221
30.82207	4034.279	51.3378	-58.04945	0.6068317
30.87618	4031.067	51.31712	-58.0103	0.6261982
30.93029	4027.87	51.2712	-57.97105	0.6450398
30.9844	4024.686	51.20403	-57.93188	0.6629533
31.0385	4021.512	51.11491	-57.89301	0.6796517
31.09261	4018.345	51.00165	-57.85462	0.69494
31.14672	4015.179	50.86793	-57.8169	0.7087198
31.20083	4012.007	50.71439	-57.78004	0.7209721
31.25493	4008.824	50.54016	-57.74417	0.7317545
31.30904	4005.634	50.34698	-57.70943	0.7411909
31.36315	4002.439	50.13607	-57.67587	0.7494252
31.41726	3999.244	49.9011	-57.64351	0.7566147
31.47136	3996.058	49.63583	-57.61227	0.7628717
31.52547	3992.889	49.34191	-57.58207	0.7682644
31.57958	3989.742	49.02915	-57.55277	0.7727965
31.63369	3986.617	48.71714	-57.52424	0.7764307
31.68779	3983.512	48.43125	-57.49633	0.7790602
31.7419	3980.427	48.1954	-57.46888	0.7805521
31.79601	3977.361	48.02519	-57.44173	0.7807565
31.85012	3974.314	47.92306	-57.41471	0.7795263
31.90422	3971.284	47.8802	-57.38764	0.7767565
31.95833	3968.262	47.8841	-57.36037	0.7723916
32.01244	3965.239	47.92456	-57.33274	0.7664085
32.06655	3962.205	47.9912	-57.30463	0.7588313
32.12066	3959.157	48.07076	-57.27598	0.749728
32.17476	3956.094	48.1515	-57.24676	0.7392061
32.22887	3953.016	48.23005	-57.21701	0.7273937
32.28298	3949.925	48.30635	-57.1868	0.7144431
32.33709	3946.825	48.3786	-57.15623	0.7005126
32.39119	3943.726	48.44129	-57.12542	0.6857746
32.4453	3940.631	48.48513	-57.09451	0.6703999
32.49941	3937.545	48.50543	-57.06366	0.6545517
32.55352	3934.472	48.50118	-57.03302	0.6383932
32.60762	3931.415	48.47689	-57.00272	0.6220688
32.66173	3928.376	48.44054	-56.9729	0.6057222
32.71584	3925.352	48.39762	-56.94364	0.5894786
32.76995	3922.337	48.34996	-56.91502	0.5734599
32.82405	3919.323	48.29866	-56.88708	0.5577705
32.87816	3916.302	48.2468	-56.85988	0.5424941
32.93227	3913.271	48.19979	-56.83345	0.5276808
32.98638	3910.225	48.15736	-56.80782	0.5133578
33.04049	3907.166	48.1137	-56.783	0.4995461
33.09459	3904.097	48.06762	-56.75897	0.4862503
33.1487	3901.022	48.02468	-56.7357	0.4735042
33.20281	3897.947	47.98978	-56.71316	0.4613713
33.25692	3894.872	47.961	-56.6913	0.4499611
33.31102	3891.797	47.93543	-56.67006	0.4394093
33.36513	3888.721	47.91543	-56.64938	0.4298562
33.41924	3885.646	47.90808	-56.62916	0.4214444
33.47335	3882.575	47.92148	-56.60932	0.4142975
33.52745	3879.514	47.96012	-56.58978	0.4085088
33.58156	3876.461	48.02122	-56.57045	0.4041258
33.63567	3873.414	48.10318	-56.55128	0.4011506
33.68978	3870.369	48.20375	-56.53216	0.3995475
33.74389	3867.321	48.31974	-56.51299	0.3992339
33.79799	3864.266	48.4457	-56.49361	0.400093
33.8521	3861.203	48.57611	-56.47385	0.4019711
33.90621	3858.134	48.70515	-56.45351	0.4046904
33.96032	3855.063	48.82963	-56.43237	0.4080602
34.01442	3851.991	48.9479	-56.41021	0.4119016
34.06853	3848.92	49.05516	-56.38684	0.4160537
34.12263	3845.851	49.13814	-56.3621	0.4203957
34.17674	3842.783	49.18319	-56.33583	0.4248374
34.23085	3839.715	49.18571	-56.30791	0.4293281
34.28496	3836.64	49.1511	-56.27824	0.4338456
34.33907	3833.561	49.09289	-56.24677	0.4383825
34.39317	3830.48	49.02467	-56.21346	0.4429516
34.44728	3827.399	48.95142	-56.1783	0.4475786
34.50139	3824.321	48.86708	-56.14136	0.4523393
34.5555	3821.245	48.7608	-56.10275	0.4573586
34.6096	3818.171	48.62328	-56.06263	0.4627966
34.66371	3815.095	48.45369	-56.02117	0.4688345
34.71782	3812.012	48.25888	-55.97859	0.475673
34.77193	3808.927	48.04565	-55.93507	0.483512
34.82603	3805.846	47.82056	-55.89077	0.4925241
34.88014	3802.775	47.59523	-55.84583	0.5028468
34.93425	3799.716	47.37982	-55.80033	0.5145396
34.98836	3796.672	47.18106	-55.75436	0.5276079
35.04247	3793.64	47.00148	-55.70795	0.541988
35.09657	3790.616	46.8464	-55.66115	0.5575722
35.15068	3787.598	46.7252	-55.61399	0.5742386
35.20479	3784.584	46.6459	-55.56649	0.5918656
35.2589	3781.575	46.61134	-55.51867	0.6103347
35.313	3778.569	46.61559	-55.47055	0.6295204
35.36711	3775.564	46.6467	-55.42218	0.6492932
35.42122	3772.555	46.69358	-55.3736	0.6695338
35.47533	3769.539	46.74765	-55.3249	0.6901413
35.52943	3766.517	46.8018	-55.27615	0.711041
35.58354	3763.499	46.85204	-55.22746	0.7321843
35.63765	3760.491	46.89716	-55.17893	0.7535382
35.69176	3757.504	46.93567	-55.13065	0.77509
35.74586	3754.541	46.96386	-55.08268	0.7968214
35.79997	3751.599	46.98314	-55.03508	0.8186969
35.85408	3748.672	47.00292	-54.98792	0.8406657
35.90819	3745.751	47.03527	-54.9412	0.8626661
35.9623	3742.83	47.0878	-54.89497	0.8846214
36.0164	3739.905	47.16299	-54.84924	0.9064204
36.07051	3736.977	47.2574	-54.80401	0.9279047
36.12462	3734.049	47.36403	-54.75925	0.9488785
36.17873	3731.121	47.47258	-54.7149	0.9691039
36.23283	3728.195	47.56866	-54.67088	0.9883273
36.28694	3725.265	47.64093	-54.62711	1.006275
36.34105	3722.33	47.68499	-54.58353	1.022673
36.39516	3719.387	47.7025	-54.5401	1.037275
36.44926	3716.444	47.69781	-54.49687	1.049873
36.50337	3713.509	47.67885	-54.45389	1.060322
36.55748	3710.594	47.64961	-54.4113	1.068565
36.61159	3707.704	47.61401	-54.36927	1.074647
36.6657	3704.838	47.57929	-54.32796	1.078722
36.7198	3701.991	47.54976	-54.28754	1.081026
36.77391	3699.158	47.52744	-54.24813	1.081841
36.82802	3696.33	47.51328	-54.20982	1.081486
36.88213	3693.5	47.51186	-54.17263	1.080276
36.93623	3690.659	47.5281	-54.13659	1.078514
36.99034	3687.798	47.56518	-54.10172	1.076439
37.04445	3684.907	47.62265	-54.06801	1.074249
37.09856	3681.978	47.69724	-54.03546	1.072093
37.15266	3679.009	47.78167	-54.00402	1.070052
37.20677	3676.007	47.86737	-53.97362	1.068158
37.26088	3672.983	47.94325	-53.94416	1.066404
37.31499	3669.957	48.00033	-53.91549	1.064753
37.36909	3666.949	48.03212	-53.88749	1.063165
37.4232	3663.972	48.03525	-53.85999	1.06158
37.47731	3661.03	48.014	-53.83283	1.059944
37.53142	3658.117	47.97711	-53.80585	1.058213
37.58552	3655.219	47.93402	-53.77886	1.056354
37.63963	3652.324	47.89039	-53.75171	1.054358
37.69374	3649.425	47.84277	-53.72422	1.052238
37.74784	3646.516	47.77935	-53.69624	1.050047
37.80195	3643.596	47.68884	-53.66763	1.047842
37.85606	3640.664	47.56842	-53.63827	1.045685
37.91017	3637.721	47.42528	-53.60805	1.043653
37.96428	3634.769	47.27007	-53.57688	1.041824
38.01838	3631.811	47.1094	-53.54467	1.04028
38.07249	3628.851	46.94933	-53.51136	1.039079
38.1266	3625.892	46.79427	-53.4769	1.038247
38.18071	3622.942	46.64406	-53.44126	1.037785
38.23481	3620.014	46.49521	-53.40444	1.037677
38.28892	3617.117	46.3444	-53.36649	1.037899
38.34303	3614.256	46.19072	-53.32751	1.038444
38.39714	3611.428	46.03263	-53.28762	1.03932
38.45124	3608.625	45.8679	-53.247	1.04056
38.50535	3605.835	45.68777	-53.20584	1.042181
38.55946	3603.046	45.48748	-53.16433	1.044184
38.61357	3600.247	45.27382	-53.12268	1.046536
38.66768	3597.43	45.05753	-53.08109	1.049177
38.72178	3594.586	44.85001	-53.03973	1.052019
38.77589	3591.71	44.65891	-52.99878	1.054964
38.83	3588.802	44.49166	-52.95838	1.057899
38.88411	3585.869	44.35178	-52.91868	1.06069
38.93821	3582.917	44.24166	-52.87983	1.063184
38.99232	3579.956	44.16455	-52.84199	1.065208
39.04643	3576.995	44.12813	-52.80531	1.066576
39.10054	3574.041	44.13981	-52.76995	1.067097
39.15464	3571.099	44.20497	-52.73604	1.066589
39.20875	3568.173	44.3215	-52.7037	1.064893
39.26286	3565.264	44.47853	-52.673	1.061914
39.31697	3562.374	44.65818	-52.644	1.057612
39.37107	3559.507	44.83581	-52.61668	1.052024
39.42518	3556.668	44.99353	-52.59102	1.045268
39.47929	3553.858	45.12169	-52.56696	1.037556
39.5334	3551.069	45.21851	-52.54436	1.029179
39.58751	3548.293	45.28349	-52.52305	1.020493
39.64161	3545.521	45.3204	-52.50285	1.011915
39.69572	3542.747	45.33656	-52.48352	1.003902
39.74983	3539.966	45.33675	-52.46485	0.9969332
39.80394	3537.178	45.32219	-52.44659	0.9914752
39.85804	3534.388	45.29101	-52.42854	0.9879346
39.91215	3531.602	45.24295	-52.41049	0.9866534
39.96626	3528.83	45.18054	-52.39226	0.9878721
40.02037	3526.075	45.10827	-52.37368	0.9917275
40.07447	3523.342	45.02958	-52.35463	0.9982379
40.12858	3520.63	44.94379	-52.335	1.007297
40.18269	3517.934	44.84684	-52.3147	1.018694
40.2368	3515.245	44.73206	-52.29366	1.032117
40.2909	3512.554	44.60082	-52.27187	1.047185
40.34501	3509.856	44.46041	-52.24934	1.063469
40.39912	3507.146	44.32424	-52.22612	1.080516
40.45323	3504.418	44.19934	-52.20223	1.097866
40.50734	3501.664	44.08482	-52.17772	1.115027
40.56144	3498.879	43.98268	-52.15262	1.131503
40.61555	3496.064	43.89676	-52.12697	1.146812
40.66966	3493.223	43.82936	-52.10084	1.160522
40.72377	3490.36	43.78264	-52.07431	1.172263
40.77787	3487.481	43.75715	-52.04747	1.18174
40.83198	3484.587	43.74857	-52.02044	1.188729
40.88609	3481.68	43.74973	-51.99331	1.193057
40.9402	3478.764	43.75628	-51.96617	1.19462
40.9943	3475.848	43.76533	-51.9391	1.193342
41.04841	3472.934	43.77766	-51.91218	1.189184
41.10252	3470.023	43.79398	-51.88548	1.182141
41.15662	3467.114	43.81369	-51.85903	1.172235
41.21073	3464.206	43.83595	-51.83285	1.159522
41.26484	3461.296	43.85534	-51.8069	1.144088
41.31895	3458.387	43.86037	-51.7811	1.126043
41.37305	3455.485	43.83844	-51.75529	1.105545
41.42716	3452.595	43.78122	-51.72931	1.08281
41.48127	3449.719	43.68724	-51.70293	1.058093
41.53538	3446.858	43.55468	-51.67591	1.031692
41.58949	3444.009	43.38239	-51.64799	1.003932
41.64359	3441.169	43.17602	-51.6189	0.9751722
41.6977	3438.337	42.94685	-51.58839	0.9457721
41.75181	3435.513	42.70822	-51.55626	0.9160936
41.80592	3432.7	42.47221	-51.52231	0.8864744
41.86002	3429.901	42.24864	-51.48643	0.8572341
41.91413	3427.116	42.04494	-51.44854	0.8286508
41.96824	3424.341	41.8659	-51.40863	0.8009567
42.02235	3421.571	41.7142	-51.36672	0.7743505
42.07645	3418.806	41.5915	-51.32286	0.748971
42.13056	3416.05	41.50037	-51.2771	0.7249249
42.18467	3413.303	41.43718	-51.22954	0.7022657
42.23878	3410.568	41.39536	-51.18027	0.6810109
42.29288	3407.844	41.36443	-51.12946	0.6611562
42.34699	3405.127	41.33632	-51.07729	0.6426943
42.4011	3402.416	41.30782	-51.02396	0.6256129
42.45521	3399.704	41.2791	-50.96972	0.6099042
42.50932	3396.984	41.2524	-50.91481	0.5955678
42.56342	3394.25	41.23409	-50.85952	0.5826216
42.61753	3391.5	41.23248	-50.80413	0.5710883
42.67164	3388.739	41.25466	-50.74898	0.5610092
42.72575	3385.979	41.30511	-50.6944	0.552431
42.77985	3383.228	41.3825	-50.64073	0.5454105
42.83396	3380.486	41.47654	-50.58833	0.5399913
42.88807	3377.747	41.57542	-50.5375	0.5362099
42.94218	3375.013	41.67039	-50.48853	0.5340609
42.99628	3372.287	41.75797	-50.44167	0.5335165
43.05039	3369.571	41.84158	-50.39712	0.5345046
43.1045	3366.865	41.92548	-50.35505	0.5369223
43.15861	3364.166	42.01119	-50.3156	0.5406362
43.21272	3361.464	42.09689	-50.27886	0.5454867
43.26682	3358.751	42.17973	-50.24485	0.5512915
43.32093	3356.028	42.25665	-50.21353	0.5578587
43.37504	3353.3	42.32529	-50.18477	0.5650018
43.42915	3350.574	42.38237	-50.1584	0.5725552
