T[Â°C]	350nm [counts / mm]	S.D.
20.00055	4103.307	49.21627
20.05466	4103.438	40.02441
20.10877	4099.82	43.41681
20.16287	4096.073	43.58941
20.21698	4088.453	46.56065
20.27109	4088.155	46.98432
20.3252	4087.094	48.52847
20.3793	4077.647	47.01789
20.43341	4074.6	47.55688
20.48752	4076.019	42.8785
20.54163	4068.336	41.76006
20.59574	4067.558	47.66711
20.64984	4063.296	44.12862
20.70395	4060.927	43.27213
20.75806	4057.339	42.03876
20.81217	4055.476	44.51928
20.86627	4051.306	43.73336
20.92038	4045.645	41.8732
20.97449	4045.418	45.71663
21.02859	4039.358	41.16286
21.0827	4037.089	42.98598
21.13681	4033.584	39.50412
21.19092	4034.527	45.04458
21.24503	4029.863	45.41408
21.29913	4023.529	42.44441
21.35324	4023.566	43.78303
21.40735	4016.892	42.20296
21.46146	4017.484	41.16466
21.51556	4019.549	43.73172
21.56967	4014.949	42.76421
21.62378	4016.891	42.68684
21.67789	4008.34	52.54396
21.73199	4002.957	46.98863
21.7861	4000.438	49.21926
21.84021	3996.423	48.59438
21.89432	3994.619	41.0157
21.94843	3992.674	42.30592
22.00253	3982.912	42.49734
22.05664	3978.471	45.45093
22.11075	3978.557	46.72718
22.16486	3976.402	40.12082
22.21896	3970.823	43.14782
22.27307	3965.594	44.04145
22.32718	3966.548	41.92811
22.38129	3961.666	44.80598
22.43539	3959.829	42.04178
22.4895	3961.028	49.71658
22.54361	3951.664	44.34431
22.59772	3954.734	43.36116
22.65182	3949.744	41.38932
22.70593	3950.149	44.31096
22.76004	3944.041	44.75842
22.81415	3940.447	39.10658
22.86825	3937.351	43.33783
22.92236	3931.994	42.76062
22.97647	3929.393	40.75666
23.03058	3929.195	39.5392
23.08468	3925.388	43.19513
23.13879	3927.151	43.6282
23.1929	3919.678	44.66441
23.24701	3915.872	45.61869
23.30112	3912.051	44.80598
23.35522	3910.484	47.29169
23.40933	3909.356	45.40327
23.46344	3902.862	47.31204
23.51755	3902.604	47.34626
23.57165	3900.661	45.21658
23.62576	3892.337	43.52992
23.67987	3888.059	41.33544
23.73398	3883.661	41.61643
23.78808	3883.059	40.14961
23.84219	3883.064	40.72646
23.8963	3879.879	47.19635
23.95041	3875.651	43.66217
24.00451	3870.542	40.73779
24.05862	3866.146	43.62532
24.11273	3866.368	48.02113
24.16684	3861.07	45.23804
24.22095	3857.935	44.61556
24.27505	3855.608	41.84658
24.32916	3851.404	43.04058
24.38327	3848.094	42.32097
24.43737	3846.287	38.60905
24.49148	3842.656	39.78814
24.54559	3839.608	42.34297
24.5997	3840.377	43.68135
24.6538	3837.728	43.30513
24.70791	3832.181	40.55375
24.76202	3829.895	39.88144
24.81613	3828.276	39.37445
24.87024	3823.959	38.37255
24.92434	3819.525	38.18018
24.97845	3815.483	35.00353
25.03256	3813.643	37.49651
25.08667	3812.134	42.50749
25.14077	3808.631	43.80655
25.19488	3801.276	36.31956
25.24899	3802.283	40.67294
25.3031	3795.888	44.17505
25.3572	3800.859	38.57743
25.41131	3797.257	39.31945
25.46542	3790.967	40.13799
25.51953	3784.816	32.81576
25.57364	3784.989	42.27166
25.62774	3782.358	40.89816
25.68185	3777.208	44.68056
25.73596	3772.699	47.23349
25.79007	3773.365	38.90231
25.84417	3771.281	43.62236
25.89828	3767.069	39.31557
25.95239	3763.036	42.87364
26.0065	3757.752	40.35353
26.0606	3758.669	36.37819
26.11471	3748.125	35.4047
26.16882	3751.846	38.59026
26.22293	3747.57	42.26856
26.27703	3742.478	41.27053
26.33114	3744.81	42.02244
26.38525	3736.164	39.98825
26.43936	3734.518	40.36051
26.49346	3731.636	40.23293
26.54757	3732.006	37.7275
26.60168	3728.121	43.24811
26.65579	3722.617	43.16289
26.70989	3720.5	37.87375
26.764	3717.624	41.77805
26.81811	3711.833	35.61505
26.87222	3710.812	42.87679
26.92632	3711.111	42.79062
26.98043	3705.795	42.36556
27.03454	3704.741	41.22131
27.08865	3694.854	33.05825
27.14276	3696.769	38.75486
27.19686	3699.311	41.77266
27.25097	3689.072	40.74048
27.30508	3688.219	45.6817
27.35919	3686.388	42.51272
27.41329	3676.926	36.56833
27.4674	3676.346	39.27062
27.52151	3674.93	44.35695
27.57562	3668.862	42.94587
27.62972	3665.032	43.03586
27.68383	3662.894	42.09828
27.73794	3660.921	38.13434
27.79205	3657.92	39.00095
27.84616	3657.37	45.10911
27.90026	3653.655	42.20985
27.95437	3649.626	36.31182
28.00848	3646.795	37.78176
28.06258	3641.261	37.40195
28.11669	3642.027	39.21374
28.1708	3643.145	37.95758
28.22491	3637.413	39.87326
28.27901	3635.848	37.1996
28.33312	3633.896	36.05981
28.38723	3628.118	37.22803
28.44134	3624.259	37.72847
28.49545	3622.332	39.59527
28.54955	3619.704	37.12122
28.60366	3613.599	37.89952
28.65777	3611.707	40.89235
28.71188	3611.056	38.26587
28.76598	3607.844	36.11139
28.82009	3607.588	33.00713
28.8742	3603.875	32.25988
28.92831	3598.943	33.98114
28.98241	3595.913	33.61189
29.03652	3588.956	34.71806
29.09063	3584.689	35.72364
29.14474	3583.69	37.93994
29.19884	3581.792	37.47892
29.25295	3578.483	39.35835
29.30706	3579.651	38.64162
29.36117	3575.408	37.16333
29.41528	3571.151	36.33167
29.46938	3574.261	41.46472
29.52349	3563.697	36.21331
29.5776	3563.606	38.2655
29.63171	3561.177	41.16271
29.68581	3557.444	39.0139
29.73992	3553.082	39.54005
29.79403	3548.187	42.45562
29.84813	3549.389	40.42534
29.90224	3549.259	33.71178
29.95635	3545.209	35.38422
30.01046	3542.599	40.49358
30.06457	3531.719	38.66402
30.11867	3528.545	38.67376
30.17278	3528.094	36.93412
30.22689	3524.663	41.68734
30.281	3526.079	35.49968
30.3351	3523.046	37.79126
30.38921	3517.706	39.90012
30.44332	3520.951	45.1142
30.49743	3514.391	36.82005
30.55153	3514.137	38.5492
30.60564	3512.814	40.16559
30.65975	3512.761	38.62368
30.71386	3503.293	36.10702
30.76797	3497.444	33.24562
30.82207	3490.359	35.70716
30.87618	3485.653	32.982
30.93029	3485.602	42.55471
30.9844	3484.802	35.08733
31.0385	3481.528	43.2838
31.09261	3478.556	38.54126
31.14672	3475.328	34.89893
31.20083	3470.49	34.18408
31.25493	3471.777	35.88233
31.30904	3468.819	38.82012
31.36315	3464.525	40.60736
31.41726	3463.152	41.77245
31.47136	3463.455	35.06662
31.52547	3461.534	39.15976
31.57958	3454.601	32.66455
31.63369	3452.804	34.43091
31.68779	3453.862	35.6113
31.7419	3451.666	33.86453
31.79601	3444.162	39.61232
31.85012	3440.781	37.48973
31.90422	3437.63	35.4802
31.95833	3432.68	30.53065
32.01244	3429.934	38.59546
32.06655	3428.153	34.48102
32.12066	3425.634	34.60095
32.17476	3421.926	36.07172
32.22887	3417.688	34.78891
32.28298	3415.367	36.14813
32.33709	3412.918	32.79912
32.39119	3412.24	35.39373
32.4453	3409.928	38.9142
32.49941	3405.849	38.09308
32.55352	3403.424	39.82285
32.60762	3401.147	37.84041
32.66173	3398.48	36.46006
32.71584	3392.851	36.61043
32.76995	3390.401	34.32633
32.82405	3387.848	31.31147
32.87816	3388.683	33.8569
32.93227	3384.63	38.30259
32.98638	3381.469	36.93963
33.04049	3375.159	35.3248
33.09459	3375.834	39.7697
33.1487	3369.486	41.41132
33.20281	3369.538	32.99298
33.25692	3365.266	34.74512
33.31102	3364.57	29.22174
33.36513	3358.486	34.58439
33.41924	3353.13	36.01229
33.47335	3353.385	33.5707
33.52745	3354.439	38.15146
33.58156	3351.855	33.82747
33.63567	3345.085	35.3514
33.68978	3341.309	36.51353
33.74389	3339.91	36.44134
33.79799	3334.557	39.22211
33.8521	3332.685	35.20446
33.90621	3327.484	38.97224
33.96032	3328.346	40.76835
34.01442	3327.432	33.80124
34.06853	3329.453	35.19526
34.12263	3319.75	33.79703
34.17674	3319.957	35.07891
34.23085	3313.506	32.40675
34.28496	3312.514	38.833
34.33907	3304.042	35.98468
34.39317	3305.849	34.15196
34.44728	3302.517	37.51141
34.50139	3300.491	32.14389
34.5555	3295.443	38.57414
34.6096	3295.131	36.57144
34.66371	3285.642	37.04292
34.71782	3287.385	36.09641
34.77193	3283.531	38.36172
34.82603	3284.265	36.95287
34.88014	3283.669	29.86027
34.93425	3282.042	34.92168
34.98836	3277.536	37.74844
35.04247	3275.579	39.54611
35.09657	3262.462	33.01734
35.15068	3263.427	36.61908
35.20479	3263.97	34.43697
35.2589	3261.5	32.63184
35.313	3255.695	27.82071
35.36711	3257.109	29.14549
35.42122	3246.312	29.94897
35.47533	3247.279	29.72832
35.52943	3241.073	34.91658
35.58354	3240.52	34.06813
35.63765	3244.103	37.10511
35.69176	3238.919	35.3526
35.74586	3235.586	36.57188
35.79997	3231.323	33.36681
35.85408	3224.65	33.37056
35.90819	3225.143	34.55383
35.9623	3224.34	39.72448
36.0164	3223.029	37.451
36.07051	3221.775	33.4204
36.12462	3219.24	33.32845
36.17873	3215.271	33.10831
36.23283	3208.675	32.15784
36.28694	3205.213	34.27068
36.34105	3206.515	34.40074
36.39516	3204.072	33.84969
36.44926	3197.628	32.28331
36.50337	3195.636	31.70461
36.55748	3199.594	36.06316
36.61159	3196.078	33.83168
36.6657	3187.111	29.5694
36.7198	3187.002	34.50728
36.77391	3182.295	36.6729
36.82802	3177.314	33.41936
36.88213	3176.167	34.24336
36.93623	3171.756	36.00131
36.99034	3167.698	32.07382
37.04445	3167.606	33.03375
37.09856	3164.673	36.32358
37.15266	3164.741	35.41668
37.20677	3162.576	33.60253
37.26088	3164.924	36.69246
37.31499	3153.424	37.11471
37.36909	3158.449	38.38328
37.4232	3151.563	30.64001
37.47731	3149.316	32.64637
37.53142	3144.679	33.26682
37.58552	3146.823	29.75814
37.63963	3131.771	29.6158
37.69374	3135.778	35.39034
37.74784	3129.231	33.5785
37.80195	3128.289	32.29881
37.85606	3128.202	36.31672
37.91017	3125.013	34.93947
37.96428	3118.133	34.86876
38.01838	3118.485	33.53165
38.07249	3112.372	36.32747
38.1266	3114.51	33.91162
38.18071	3105.295	29.71064
38.23481	3107.623	32.4332
38.28892	3105.412	31.77894
38.34303	3106.117	30.65801
38.39714	3094.738	37.05871
38.45124	3095.101	33.04039
38.50535	3091.997	37.53885
38.55946	3093.075	32.49122
38.61357	3089.934	31.9006
38.66768	3089.36	31.3793
38.72178	3083.487	27.96861
38.77589	3085.19	32.76319
38.83	3073.957	28.69415
38.88411	3074.43	30.89222
38.93821	3068.081	34.88033
38.99232	3070.622	25.88231
39.04643	3064.722	26.28835
39.10054	3065.284	26.15184
39.15464	3059.082	33.63966
39.20875	3060.58	31.44109
39.26286	3058.407	28.27681
39.31697	3057.771	30.25097
39.37107	3046.061	28.17167
39.42518	3046.424	28.02904
39.47929	3043.897	32.27303
39.5334	3042.567	29.98254
39.58751	3038.123	29.3773
39.64161	3038.876	32.19018
39.69572	3032.238	31.07666
39.74983	3030.813	28.12473
39.80394	3025.317	28.58068
39.85804	3024.922	29.72737
39.91215	3024.971	34.53623
39.96626	3020.765	35.33419
40.02037	3017.379	34.09219
40.07447	3016.883	31.21517
40.12858	3015.337	29.18419
40.18269	3009.402	30.75854
40.2368	3007.984	27.5592
40.2909	3005.801	30.4062
40.34501	3003.99	31.25196
40.39912	2999.185	31.38285
40.45323	2999.947	34.41106
40.50734	2995.236	24.22175
40.56144	2997.694	24.7605
40.61555	2984.603	30.96712
40.66966	2987.648	31.37836
40.72377	2982.483	28.26854
40.77787	2986.209	30.16538
40.83198	2980.719	30.77127
40.88609	2978.798	30.86472
40.9402	2974.096	29.16763
40.9943	2972.054	27.24257
41.04841	2967.019	32.38254
41.10252	2967.087	27.55007
41.15662	2962.991	33.37614
41.21073	2962.472	29.0904
41.26484	2953.833	37.74984
41.31895	2954.53	35.06955
41.37305	2948.105	31.25107
41.42716	2948.726	29.88033
41.48127	2948.384	27.31827
41.53538	2944.72	30.17393
41.58949	2934.56	29.57771
41.64359	2942.184	26.98557
41.6977	2935.322	26.8407
41.75181	2932.701	29.66994
41.80592	2928.108	32.33727
41.86002	2931.956	34.07497
41.91413	2922.45	31.92936
41.96824	2920.664	30.92448
42.02235	2919.373	32.96379
42.07645	2919.898	33.4202
42.13056	2911.316	30.65205
42.18467	2910.774	28.67302
42.23878	2910.053	31.87812
42.29288	2909.571	30.01118
42.34699	2903.004	28.52599
42.4011	2897.895	30.19183
42.45521	2897.643	29.08352
42.50932	2897.302	28.25612
42.56342	2893.448	26.79691
42.61753	2894.719	27.46543
42.67164	2893.983	25.92887
42.72575	2889.256	27.08167
42.77985	2883.499	30.36889
42.83396	2880.13	29.49016
42.88807	2877.585	31.36056
42.94218	2874.437	34.10991
42.99628	2873.608	31.96942
43.05039	2872.626	30.03656
43.1045	2872.56	28.60502
43.15861	2866.773	27.14011
43.21272	2864.747	29.52402
43.26682	2859.962	28.63749
43.32093	2855.975	30.54777
43.37504	2853.612	30.06322
43.42915	2850.09	27.43215
43.48325	2849.009	30.27252
43.53736	2845.69	27.40852
43.59147	2842.485	26.58931
43.64558	2843.656	27.22736
43.69968	2837.18	27.47239
43.75379	2837.319	29.55194
43.8079	2831.398	29.9023
43.86201	2831.286	29.96855
43.91611	2827.826	30.40917
43.97022	2826.702	30.28165
44.02433	2822.589	29.87835
44.07844	2816.844	26.02691
44.13255	2817.81	28.53412
44.18665	2820.214	28.01187
44.24076	2811.336	33.99994
44.29487	2818.784	33.11433
44.34898	2810.259	32.85376
44.40308	2814.274	31.47693
44.45719	2803.213	34.49939
44.5113	2804.32	33.25753
44.56541	2799.667	24.34326
44.61951	2797.656	26.48237
44.67362	2791.276	31.76919
44.72773	2790.411	26.8643
44.78183	2786.91	34.49488
44.83594	2790.239	30.88313
44.89005	2781.009	34.12199
44.94416	2782.462	28.04006
44.99826	2773.395	30.06848
45.05237	2774.529	30.69834
45.10648	2771.602	28.25179
45.16059	2770.792	25.72712
45.21469	2767.272	28.01282
45.2688	2770.624	29.51905
45.32291	2763.704	29.88194
45.37702	2763.403	28.10302
45.43113	2757.136	32.07434
45.48523	2757.545	30.45362
45.53934	2749.219	27.0007
45.59345	2751.774	26.54247
45.64756	2744.804	27.53549
45.70166	2746.7	26.30812
45.75577	2744.323	24.32203
45.80988	2744.519	23.4496
45.86399	2734.808	28.26322
45.91809	2737.926	24.56758
45.9722	2730.339	28.53115
46.02631	2731.083	26.91885
46.08042	2725.144	29.57038
46.13453	2728.449	27.42935
46.18863	2720.395	29.99129
46.24274	2724.281	26.14738
46.29685	2719.978	22.58175
46.35096	2717.672	29.05511
46.40506	2710.548	27.88722
46.45917	2711.342	28.02342
46.51328	2706.575	29.62964
46.56739	2706.398	31.74058
46.62149	2699.849	26.20551
46.6756	2701.229	29.0122
46.72971	2695.314	20.68352
46.78382	2695.843	25.65385
46.83792	2687.746	28.5095
46.89203	2689.245	24.02277
46.94614	2683.823	23.12938
47.00025	2684.723	28.16227
47.05436	2681.428	29.66419
47.10846	2678.552	26.82467
47.16257	2675.764	31.8312
47.21668	2677.076	31.14168
47.27079	2674.07	28.94697
47.32489	2670.713	23.81867
47.379	2664.545	25.46536
47.43311	2663.36	28.26077
47.48722	2664.183	25.84526
47.54132	2663.168	27.09049
47.59543	2660.409	28.57344
47.64954	2656.252	31.00106
47.70365	2652.387	28.23207
47.75776	2648.531	24.95411
47.81186	2644.727	28.07283
47.86597	2643.927	24.01642
47.92008	2643.217	22.53659
47.97419	2641.712	24.9071
48.02829	2640.418	25.61804
48.0824	2636.811	26.56177
48.13651	2637.258	23.3673
48.19061	2631.549	27.8557
48.24472	2629.336	30.84549
48.29883	2626.098	27.02608
48.35294	2627.901	25.34435
48.40704	2619.82	24.25684
48.46115	2622.342	25.28545
48.51526	2615.022	27.41644
48.56937	2612.01	28.19619
48.62347	2610.784	32.84583
48.67758	2607.346	29.67426
48.73169	2603.549	30.25903
48.7858	2605.166	29.14891
48.8399	2599.282	26.78513
48.89401	2600.134	26.41776
48.94812	2592.336	29.22729
49.00223	2593.228	27.94283
49.05634	2592.928	26.4201
49.11044	2594.366	27.49756
49.16455	2586.082	29.37349
49.21866	2588.396	29.90367
49.27277	2580.078	26.06134
49.32687	2582.672	22.00624
49.38098	2579.165	25.74921
49.43509	2579.218	23.50289
49.4892	2574.834	23.54962
49.5433	2573.275	27.7782
49.59741	2568.673	23.53746
49.65152	2569.56	18.70348
49.70563	2558.82	27.35348
49.75974	2561.965	23.27761
49.81384	2553.977	23.63166
49.86795	2553.786	22.36006
49.92206	2553.175	25.75863
49.97617	2553.253	25.31896
50.03027	2545.846	23.49535
50.08438	2546.238	24.80834
50.13849	2541.688	25.41711
50.1926	2541.721	25.32
50.2467	2539.708	25.19189
50.30081	2540.142	22.86814
50.35492	2531.831	28.53115
50.40903	2531.008	27.47091
50.46313	2524.726	21.11347
50.51724	2528.548	22.91878
50.57135	2521.464	27.6613
50.62546	2526.375	28.76987
50.67957	2517.018	26.47738
50.73367	2518.847	23.27014
50.78778	2512.969	28.94245
50.84189	2514.523	25.97597
50.896	2505.79	26.18568
50.9501	2506.593	21.47131
51.00421	2502.904	25.61916
51.05832	2503.002	23.74679
51.11243	2495.653	23.83306
51.16653	2497.316	25.75935
51.22064	2490.84	23.331
51.27475	2491.23	26.96826
51.32886	2486.97	27.0735
51.38297	2490.042	24.81025
51.43707	2485.653	26.9566
51.49118	2485.293	27.44082
51.54529	2481.467	26.85491
51.5994	2482.963	24.52611
51.6535	2474.48	22.06901
51.70761	2477.669	24.73059
51.76171	2474.196	23.86799
51.81582	2473.713	25.08628
51.86993	2470.255	26.20034
51.92404	2466.407	23.53663
51.97815	2462.817	25.46395
52.03225	2459.219	23.76075
52.08636	2455.582	21.08848
52.14047	2456.972	23.27475
52.19458	2453.192	26.40666
52.24868	2449.974	26.58076
52.30279	2449.349	27.07283
52.3569	2444.134	28.54
52.41101	2443.309	27.71688
52.46511	2439.766	28.20346
52.51922	2441.941	26.98289
52.57333	2436.21	26.82434
52.62744	2439.671	24.40183
52.68155	2431.898	23.02649
52.73565	2435.047	21.90648
52.78976	2429.121	24.95236
52.84387	2430.966	23.60867
52.89798	2423.284	21.08481
52.95208	2425.358	19.00668
53.00619	2414.898	24.52928
53.0603	2418.613	22.62939
53.11441	2414.177	22.10856
53.16851	2415.583	22.32543
53.22262	2405.879	24.22769
53.27673	2411.25	21.66457
53.33084	2404.198	19.35894
53.38494	2407.853	19.26272
53.43905	2397.429	25.24112
53.49316	2398.343	21.51648
53.54727	2393.923	23.32987
53.60138	2393.634	25.38994
53.65548	2386.723	25.47424
53.70959	2390.2	26.3306
53.7637	2385.835	20.75937
53.81781	2383.775	23.93006
53.87191	2377.534	23.08793
53.92602	2377.615	20.7929
53.98013	2374.709	25.9204
54.03424	2376.323	28.95199
54.08834	2373.117	25.46892
54.14245	2371.734	23.4473
54.19656	2369.925	24.9163
54.25067	2362.072	22.81974
54.30478	2363.272	21.89072
54.35888	2360.319	27.51673
54.41299	2362.986	27.3772
54.4671	2356.794	24.30021
54.52121	2359.656	23.66999
54.57531	2352.574	21.34341
54.62942	2354.669	19.18057
54.68353	2347.936	21.82644
54.73764	2347.869	20.30136
54.79174	2343.795	27.7126
54.84585	2345.405	28.5228
54.89996	2338.716	24.46556
54.95407	2340.351	21.19247
55.00817	2338.001	21.97096
55.06228	2340.144	19.84409
55.11639	2329.905	23.78827
55.17049	2333.759	17.69265
55.2246	2320.699	21.92406
55.27871	2323.051	18.66766
55.33282	2322.582	25.9515
55.38692	2326.322	28.75672
55.44103	2318.302	30.09204
55.49514	2319.423	29.23381
55.54925	2313.341	26.57729
55.60336	2313.728	24.26704
55.65746	2306.476	23.80816
55.71157	2310.215	20.7562
55.76568	2303.391	27.3393
55.81979	2306.216	27.15631
55.87389	2295.922	24.93217
55.928	2299.288	24.53756
55.98211	2288.028	26.28968
56.03622	2292.263	24.30603
56.09032	2285.131	21.83406
56.14443	2287.361	21.09019
56.19854	2281.223	22.8054
56.25265	2284.593	21.51846
56.30676	2281.542	22.15434
56.36086	2281.992	23.84532
56.41497	2277.118	24.99632
56.46908	2274.867	24.67003
56.52319	2275.936	23.3352
56.57729	2271.772	21.13701
56.6314	2274.584	21.97766
56.68551	2266.088	23.47085
56.73962	2269.026	21.32129
56.79372	2262.072	19.50411
56.84783	2267.243	21.96027
56.90194	2258.931	17.46855
56.95605	2261.603	15.91647
57.01015	2256.123	20.96951
57.06426	2254.538	18.03311
57.11837	2249.427	18.16595
57.17248	2252.835	15.20587
57.22659	2244.732	20.2152
57.28069	2245.203	19.6071
57.3348	2236.816	19.49945
57.38891	2241.904	25.26739
57.44302	2234.151	20.78157
57.49712	2239.758	23.37798
57.55123	2230.67	26.27588
57.60534	2233.063	22.57987
57.65945	2228.011	24.25626
57.71355	2228.72	22.76544
57.76766	2223.402	23.31219
57.82177	2227.65	21.21091
57.87588	2216.275	24.49582
57.92999	2222.206	23.6359
57.98409	2213.892	18.38676
58.0382	2215.271	20.87669
58.09231	2210.655	24.74004
58.14642	2209.954	23.5648
58.20052	2202.016	24.87553
58.25463	2206.362	20.36308
58.30874	2200.516	25.262
58.36285	2197.857	27.28434
58.41695	2194.563	21.73495
58.47106	2197.723	17.67851
58.52517	2195.074	20.73395
58.57928	2192.842	21.19213
58.63338	2189.139	22.92527
58.68749	2187.876	23.74716
58.7416	2184.484	24.96355
58.7957	2183.55	22.49551
58.84981	2182.402	20.61709
58.90392	2182.052	21.46198
58.95803	2179.364	22.03372
59.01213	2177.764	22.22693
59.06624	2176.044	21.21603
59.12035	2174.906	19.30719
59.17446	2172.143	20.29508
59.22857	2167.749	21.54932
59.28267	2165.684	21.1709
59.33678	2163.327	23.19731
59.39089	2162.804	23.65948
59.445	2160.461	19.7432
59.4991	2160.011	20.25725
59.55321	2154.241	21.99461
59.60732	2155.52	22.48043
59.66143	2149.339	24.24217
59.71553	2149.037	22.98009
59.76964	2146.139	24.13177
59.82375	2149.231	20.88314
59.87786	2141.739	20.54865
59.93196	2144.484	19.92135
59.98607	2138.803	19.90049
60.04018	2139.075	15.10039
60.09429	2132.182	18.26909
60.1484	2133.694	18.08061
60.2025	2129.855	18.7649
60.25661	2132.803	20.00043
60.31072	2126.421	23.71087
60.36483	2128.742	24.33147
60.41893	2117.973	20.41589
