T[Â°C]	350nm [counts / mm]	S.D.	First derivative	S.D. of first derivative
20.00053	4145.795		-58.64306	
20.05464	4142.344		-58.62932	
20.10875	4138.896		-58.61609	
20.16286	4135.453		-58.60339	
20.21696	4132.013		-58.59123	
20.27107	4128.577		-58.57965	
20.32518	4125.146		-58.56865	
20.37929	4121.718		-58.55825	
20.43339	4118.295		-58.54848	
20.4875	4114.876		-58.53933	
20.54161	4111.461		-58.53084	
20.59572	4108.05		-58.523	
20.64982	4104.645		-58.51584	
20.70393	4101.244		-58.50936	
20.75804	4097.849		-58.50357	
20.81215	4094.461		-58.49849	
20.86625	4091.082		-58.4941	
20.92036	4087.719		-58.49043	
20.97447	4084.546		-58.48746	
21.02858	4081.416		-58.48521	
21.08268	4078.318		-58.48366	
21.13679	4075.239		-58.48281	
21.1909	4072.166		-58.48266	
21.24501	4069.09		-58.48319	
21.29911	4066		-58.48441	
21.35322	4062.886		-58.48627	
21.40733	4059.745		-58.48879	
21.46144	4056.581		-58.49192	
21.51554	4053.404		-58.49565	
21.56965	4050.227		-58.49994	
21.62376	4047.062		-58.50476	
21.67787	4043.916		-58.51006	
21.73198	4040.793		-58.51579	
21.78608	4037.694		-58.52189	
21.84019	4034.618		-58.52831	
21.8943	4031.561		-58.53497	
21.94841	4028.514		-58.54179	
22.00251	4025.465		-58.54871	
22.05662	4022.407		-58.55564	
22.11073	4019.328		-58.56251	
22.16484	4016.217		-58.56922	
22.21894	4013.066		-58.57571	
22.27305	4009.881		-58.58194	
22.32716	4006.679		-58.5879	
22.38127	4003.477		-58.59372	
22.43538	4000.293		-58.59964	
22.48948	3997.143		-58.60617	
22.54359	3994.034		-58.61409	
22.5977	3990.97		-58.62428	
22.6518	3987.953		-58.64633	
22.70591	3984.977		-58.66531	
22.76002	3982.034		-58.68079	
22.81413	3979.104		-58.69241	
22.86823	3976.161		-58.69986	
22.92234	3973.186		-58.70294	
22.97645	3970.165		-58.7015	
23.03056	3967.089		-58.6955	
23.08467	3963.953		-58.68496	
23.13877	3960.754		-58.66999	
23.19288	3957.496		-58.6507	
23.24699	3954.195		-58.62725	
23.3011	3950.869		-58.59978	
23.3552	3947.534		-58.56846	
23.40931	3944.201		-58.53347	
23.46342	3940.876		-58.49499	
23.51753	3937.555		-58.45327	
23.57163	3934.234		-58.40858	
23.62574	3930.905		-58.36119	
23.67985	3927.561		-58.31144	
23.73396	3924.198		-58.25965	
23.78806	3920.822		-58.20616	
23.84217	3917.436		-58.1513	
23.89628	3914.049		-58.09538	
23.95039	3910.671		-58.03868	
24.0045	3907.304		-57.98146	
24.0586	3903.949		-57.92397	
24.11271	3900.601		-57.86645	
24.16682	3897.252		-57.80911	
24.22093	3893.906		-57.75213	
24.27503	3890.576		-57.69569	
24.32914	3887.27		-57.63994	
24.38325	3883.997		-57.585	
24.43736	3880.758		-57.53096	
24.49146	3877.557		-57.47779	
24.54557	3874.396		-57.42543	
24.59968	3871.275		-57.37374	
24.65379	3868.191		-57.32254	
24.70789	3865.144		-57.27165	
24.762	3862.135		-57.22087	
24.81611	3859.164		-57.17	
24.87022	3856.228		-57.11887	
24.92432	3853.324		-57.06733	
24.97843	3850.449		-57.01529	
25.03254	3847.604		-56.96268	
25.08665	3844.787		-56.90951	
25.14075	3841.99		-56.85589	
25.19486	3839.2		-56.80202	
25.24897	3836.401		-56.74818	
25.30308	3833.583		-56.69473	
25.35719	3830.749		-56.64209	
25.41129	3827.904		-56.59069	
25.4654	3825.059		-56.54103	
25.51951	3822.216		-56.49356	
25.57362	3819.374		-56.44877	
25.62772	3816.524		-56.40714	
25.68183	3813.661		-56.36914	
25.73594	3810.781		-56.33525	
25.79005	3807.879		-56.3059	
25.84415	3804.951		-56.28148	
25.89826	3801.999		-56.26231	
25.95237	3799.024		-56.24866	
26.00648	3796.025		-56.24069	
26.06059	3793		-56.23849	
26.11469	3789.947		-56.24202	
26.1688	3786.862		-56.25115	
26.22291	3783.743		-56.26567	
26.27701	3780.588		-56.28531	
26.33112	3777.404		-56.30974	
26.38523	3774.2		-56.33854	
26.43934	3770.985		-56.37121	
26.49344	3767.775		-56.40715	
26.54755	3764.583		-56.44569	
26.60166	3761.418		-56.48603	
26.65577	3758.286		-56.52733	
26.70988	3755.19		-56.56868	
26.76398	3752.119		-56.60914	
26.81809	3749.061		-56.64783	
26.8722	3745.997		-56.68388	
26.92631	3742.913		-56.71648	
26.98041	3739.803		-56.74486	
27.03452	3736.673		-56.76831	
27.08863	3733.526		-56.78624	
27.14274	3730.372		-56.79815	
27.19684	3727.211		-56.80363	
27.25095	3724.048		-56.80233	
27.30506	3720.89		-56.79398	
27.35917	3717.743		-56.77844	
27.41327	3714.611		-56.75565	
27.46738	3711.494		-56.72571	
27.52149	3708.395		-56.68885	
27.5756	3705.308		-56.6454	
27.62971	3702.225		-56.59582	
27.68381	3699.133		-56.54067	
27.73792	3696.024		-56.48061	
27.79203	3692.896		-56.41635	
27.84614	3689.753		-56.34867	
27.90024	3686.603		-56.2784	
27.95435	3683.446		-56.20634	
28.00846	3680.286		-56.13331	
28.06256	3677.129		-56.06004	
28.11667	3673.985		-55.9872	
28.17078	3670.851		-55.91543	
28.22489	3667.714		-55.84529	
28.279	3664.566		-55.77728	
28.3331	3661.404		-55.71184	
28.38721	3658.233		-55.64933	
28.44132	3655.065		-55.59	
28.49543	3651.909		-55.53405	
28.54953	3648.767		-55.48151	
28.60364	3645.654		-55.43234	
28.65775	3642.583		-55.38643	
28.71186	3639.569		-55.34359	
28.76596	3636.62		-55.30365	
28.82007	3633.736		-55.26639	
28.87418	3630.904		-55.23159	
28.92829	3628.114		-55.19904	
28.9824	3625.359		-55.16855	
29.0365	3622.633		-55.1399	
29.09061	3619.93		-55.11287	
29.14472	3617.243		-55.0872	
29.19883	3614.56		-55.0626	
29.25293	3611.87		-55.03878	
29.30704	3609.168		-55.01545	
29.36115	3606.449		-54.99236	
29.41526	3603.71		-54.96935	
29.46936	3600.955		-54.94624	
29.52347	3598.191		-54.92296	
29.57758	3595.428		-54.89944	
29.63169	3592.67		-54.87568	
29.68579	3589.915		-54.85164	
29.7399	3587.16		-54.82734	
29.79401	3584.399		-54.80279	
29.84812	3581.62		-54.77805	
29.90222	3578.797		-54.75325	
29.95633	3575.907		-54.72853	
30.01044	3572.935		-54.7041	
30.06455	3569.886		-54.68016	
30.11865	3566.771		-54.65693	
30.17276	3563.602		-54.63462	
30.22687	3560.396		-54.61343	
30.28098	3557.166		-54.59354	
30.33508	3553.924		-54.57508	
30.38919	3550.68		-54.55814	
30.4433	3547.443		-54.54281	
30.49741	3544.225		-54.52907	
30.55152	3541.041		-54.51687	
30.60562	3537.9		-54.50608	
30.65973	3534.805		-54.49651	
30.71384	3531.75		-54.48787	
30.76795	3528.725		-54.47984	
30.82205	3525.718		-54.47204	
30.87616	3522.722		-54.46411	
30.93027	3519.723		-54.45568	
30.98438	3516.71		-54.44643	
31.03848	3513.677		-54.43604	
31.09259	3510.622		-54.42423	
31.1467	3507.558		-54.41079	
31.20081	3504.497		-54.39555	
31.25492	3501.451		-54.37838	
31.30902	3498.429		-54.35918	
31.36313	3495.434		-54.33786	
31.41724	3492.468		-54.31437	
31.47134	3489.527		-54.28863	
31.52545	3486.609		-54.2606	
31.57956	3483.708		-54.23023	
31.63367	3480.812		-54.19743	
31.68777	3477.912		-54.16212	
31.74188	3475.008		-54.12424	
31.79599	3472.106		-54.08377	
31.8501	3469.209		-54.04072	
31.90421	3466.318		-53.99523	
31.95831	3463.425		-53.9475	
32.01242	3460.532		-53.89786	
32.06653	3457.647		-53.84674	
32.12064	3454.779		-53.79467	
32.17474	3451.936		-53.74228	
32.22885	3449.129		-53.69021	
32.28296	3446.37		-53.63916	
32.33707	3443.658		-53.58981	
32.39117	3440.981		-53.54287	
32.44528	3438.322		-53.49896	
32.49939	3435.664		-53.45866	
32.5535	3432.988		-53.42245	
32.6076	3430.285		-53.3907	
32.66171	3427.556		-53.36367	
32.71582	3424.796		-53.34149	
32.76993	3422.009		-53.32415	
32.82404	3419.197		-53.31152	
32.87814	3416.361		-53.30341	
32.93225	3413.505		-53.29951	
32.98636	3410.629		-53.29951	
33.04047	3407.732		-53.30303	
33.09457	3404.815		-53.30972	
33.14868	3401.885		-53.3192	
33.20279	3398.949		-53.33109	
33.2569	3396.009		-53.34501	
33.311	3393.066		-53.36055	
33.36511	3390.12		-53.37735	
33.41922	3387.172		-53.39499	
33.47333	3384.219		-53.41309	
33.52744	3381.258		-53.43121	
33.58154	3378.291		-53.44889	
33.63565	3375.32		-53.46565	
33.68976	3372.349		-53.48102	
33.74387	3369.388		-53.49451	
33.79797	3366.445		-53.50562	
33.85208	3363.528		-53.51381	
33.90619	3360.639		-53.51855	
33.96029	3357.775		-53.51937	
34.0144	3354.936		-53.51585	
34.06851	3352.117		-53.50765	
34.12262	3349.314		-53.4946	
34.17672	3346.518		-53.47663	
34.23083	3343.714		-53.45379	
34.28494	3340.89		-53.42627	
34.33905	3338.042		-53.39432	
34.39315	3335.169		-53.35831	
34.44726	3332.264		-53.31866	
34.50137	3329.321		-53.27586	
34.55548	3326.328		-53.23043	
34.60958	3323.28		-53.18294	
34.66369	3320.181		-53.13399	
34.7178	3317.043		-53.08418	
34.77191	3313.891		-53.03406	
34.82602	3310.748		-52.9842	
34.88012	3307.633		-52.93508	
34.93423	3304.554		-52.8871	
34.98834	3301.507		-52.84059	
35.04245	3298.486		-52.79581	
35.09655	3295.484		-52.75291	
35.15066	3292.5		-52.71198	
35.20477	3289.534		-52.67306	
35.25888	3286.588		-52.63613	
35.31298	3283.659		-52.60116	
35.36709	3280.747		-52.56808	
35.4212	3277.856		-52.53683	
35.47531	3274.991		-52.50734	
35.52942	3272.162		-52.47952	
35.58352	3269.374		-52.45337	
35.63763	3266.636		-52.42885	
35.69174	3263.958		-52.406	
35.74585	3261.342		-52.38483	
35.79995	3258.779		-52.36531	
35.85406	3256.254		-52.34735	
35.90817	3253.75		-52.33082	
35.96228	3251.243		-52.31549	
36.01638	3248.718		-52.30115	
36.07049	3246.163		-52.28755	
36.1246	3243.575		-52.27443	
36.17871	3240.948		-52.26159	
36.23281	3238.28		-52.24881	
36.28692	3235.573		-52.23596	
36.34103	3232.845		-52.22294	
36.39514	3230.115		-52.20974	
36.44925	3227.399		-52.19641	
36.50335	3224.71		-52.1831	
36.55746	3222.047		-52.17004	
36.61157	3219.393		-52.15751	
36.66568	3216.723		-52.14586	
36.71978	3214.015		-52.13547	
36.77389	3211.251		-52.12672	
36.828	3208.429		-52.11995	
36.88211	3205.555		-52.11544	
36.93621	3202.636		-52.1134	
36.99032	3199.682		-52.11388	
37.04443	3196.702		-52.11681	
37.09854	3193.703		-52.12202	
37.15265	3190.693		-52.12923	
37.20675	3187.683		-52.1381	
37.26086	3184.686		-52.14824	
37.31497	3181.707		-52.15926	
37.36908	3178.749		-52.17073	
37.42318	3175.811		-52.18221	
37.47729	3172.891		-52.19323	
37.53139	3169.983		-52.20334	
37.5855	3167.077		-52.21212	
37.63961	3164.164		-52.21919	
37.69372	3161.244		-52.22422	
37.74783	3158.318		-52.22696	
37.80193	3155.388		-52.22714	
37.85604	3152.46		-52.22456	
37.91015	3149.542		-52.21898	
37.96426	3146.633		-52.21021	
38.01836	3143.738		-52.19803	
38.07247	3140.859		-52.18227	
38.12658	3137.998		-52.16277	
38.18069	3135.149		-52.13939	
38.23479	3132.304		-52.112	
38.2889	3129.455		-52.08052	
38.34301	3126.602		-52.04491	
38.39712	3123.746		-52.00515	
38.45123	3120.894		-51.96128	
38.50533	3118.05		-51.91341	
38.55944	3115.21		-51.86167	
38.61355	3112.378		-51.8063	
38.66766	3109.554		-51.74758	
38.72176	3106.737		-51.68586	
38.77587	3103.925		-51.62152	
38.82998	3101.115		-51.55502	
38.88409	3098.299		-51.48682	
38.93819	3095.469		-51.41741	
38.9923	3092.63		-51.34726	
39.04641	3089.794		-51.27681	
39.10052	3086.976		-51.20648	
39.15462	3084.191		-51.13665	
39.20873	3081.45		-51.06765	
39.26284	3078.758		-50.99978	
39.31695	3076.107		-50.9333	
39.37106	3073.49		-50.86843	
39.42516	3070.898		-50.80531	
39.47927	3068.331		-50.74403	
39.53338	3065.785		-50.68465	
39.58749	3063.257		-50.6272	
39.64159	3060.731		-50.57171	
39.6957	3058.19		-50.51821	
39.74981	3055.614		-50.46668	
39.80392	3052.988		-50.41708	
39.85802	3050.308		-50.36934	
39.91213	3047.582		-50.32335	
39.96624	3044.826		-50.27897	
40.02035	3042.055		-50.2361	
40.07446	3039.282		-50.19463	
40.12856	3036.515		-50.15441	
40.18267	3033.753		-50.11534	
40.23678	3030.995		-50.07728	
40.29089	3028.24		-50.0401	
40.34499	3025.494		-50.00363	
40.3991	3022.769		-49.96769	
40.45321	3020.07		-49.93211	
40.50732	3017.395		-49.89669	
40.56142	3014.734		-49.86122	
40.61553	3012.077		-49.82551	
40.66964	3009.413		-49.78938	
40.72375	3006.739		-49.75271	
40.77785	3004.059		-49.71541	
40.83196	3001.379		-49.67743	
40.88607	2998.698		-49.63878	
40.94017	2996.015		-49.59954	
40.99428	2993.33		-49.55976	
41.04839	2990.64		-49.51954	
41.1025	2987.948		-49.47894	
41.1566	2985.257		-49.438	
41.21071	2982.572		-49.39672	
41.26482	2979.895		-49.35514	
41.31893	2977.218		-49.31327	
41.37304	2974.531		-49.27111	
41.42714	2971.831		-49.22869	
41.48125	2969.106		-49.18605	
41.53536	2966.354		-49.14325	
41.58947	2963.577		-49.10039	
41.64357	2960.783		-49.05761	
41.69768	2957.984		-49.01506	
41.75179	2955.187		-48.97289	
41.8059	2952.396		-48.93126	
41.86	2949.615		-48.89029	
41.91411	2946.85		-48.85009	
41.96822	2944.101		-48.81079	
42.02233	2941.373		-48.77247	
42.07644	2938.669		-48.73524	
42.13054	2935.99		-48.6992	
42.18465	2933.333		-48.66438	
42.23876	2930.698		-48.63082	
42.29287	2928.085		-48.59853	
42.34697	2925.492		-48.5675	
42.40108	2922.925		-48.53773	
42.45519	2920.387		-48.50922	
42.5093	2917.881		-48.48199	
42.5634	2915.407		-48.45609	
42.61751	2912.963		-48.43157	
42.67162	2910.544		-48.40853	
42.72573	2908.139		-48.38706	
42.77983	2905.736		-48.36729	
42.83394	2903.32		-48.34935	
42.88805	2900.881		-48.33337	
42.94216	2898.412		-48.31947	
42.99627	2895.908		-48.30774	
43.05037	2893.373		-48.29824	
43.10448	2890.81		-48.29098	
43.15859	2888.227		-48.28593	
43.2127	2885.619		-48.28304	
43.2668	2882.988		-48.28223	
43.32091	2880.34		-48.28339	
43.37502	2877.689		-48.28641	
43.42913	2875.052		-48.29114	
43.48323	2872.44		-48.29747	
43.53734	2869.857		-48.30529	
43.59145	2867.303		-48.31456	
43.64556	2864.773		-48.32524	
43.69967	2862.251		-48.33731	
43.75377	2859.722		-48.35071	
43.80788	2857.172		-48.36536	
43.86199	2854.591		-48.38111	
43.9161	2851.98		-48.3978	
43.9702	2849.345		-48.41524	
44.02431	2846.696		-48.43323	
44.07842	2844.035		-48.45153	
44.13253	2841.362		-48.46984	
44.18663	2838.682		-48.4878	
44.24074	2836		-48.50499	
44.29485	2833.322		-48.52092	
44.34896	2830.652		-48.53508	
44.40306	2827.997		-48.54696	
44.45717	2825.354		-48.55612	
44.51128	2822.72		-48.56215	
44.56538	2820.088		-48.56469	
44.61949	2817.451		-48.56348	
44.6736	2814.799		-48.55828	
44.72771	2812.127		-48.54895	
44.78181	2809.429		-48.53541	
44.83592	2806.707		-48.51766	
44.89003	2803.961		-48.49577	
44.94414	2801.19		-48.46988	
44.99825	2798.395		-48.44017	
45.05235	2795.588		-48.4069	
45.10646	2792.79		-48.37029	
45.16057	2790.013		-48.33059	
45.21468	2787.262		-48.28802	
45.26878	2784.543		-48.24274	
45.32289	2781.856		-48.19492	
45.377	2779.197		-48.14465	
45.43111	2776.563		-48.09204	
45.48521	2773.949		-48.03722	
45.53932	2771.342		-47.9803	
45.59343	2768.733		-47.92138	
45.64754	2766.12		-47.8606	
45.70164	2763.507		-47.79808	
45.75575	2760.895		-47.73391	
45.80986	2758.282		-47.66817	
45.86397	2755.664		-47.60092	
45.91808	2753.042		-47.5323	
45.97218	2750.42		-47.46245	
46.02629	2747.804		-47.39153	
46.0804	2745.193		-47.31973	
46.13451	2742.59		-47.2472	
46.18861	2740.001		-47.1741	
46.24272	2737.434		-47.10052	
46.29683	2734.898		-47.02657	
46.35094	2732.408		-46.9523	
46.40504	2729.964		-46.87777	
46.45915	2727.556		-46.80307	
46.51326	2725.17		-46.7283	
46.56737	2722.797		-46.65359	
46.62148	2720.426		-46.57907	
46.67558	2718.052		-46.50488	
46.72969	2715.676		-46.43118	
46.7838	2713.302		-46.35818	
46.83791	2710.934		-46.28614	
46.89201	2708.571		-46.21535	
46.94612	2706.204		-46.14618	
47.00023	2703.821		-46.07898	
47.05434	2701.413		-46.01419	
47.10844	2698.978		-45.9522	
47.16255	2696.518		-45.89339	
47.21666	2694.041		-45.83809	
47.27077	2691.552		-45.78656	
47.32487	2689.053		-45.73896	
47.37898	2686.552		-45.69538	
47.43309	2684.058		-45.65585	
47.4872	2681.579		-45.62027	
47.54131	2679.108		-45.58854	
47.59541	2676.637		-45.56049	
47.64952	2674.161		-45.5359	
47.70363	2671.679		-45.51457	
47.75774	2669.191		-45.49623	
47.81184	2666.697		-45.48066	
47.86595	2664.199		-45.46763	
47.92006	2661.7		-45.45697	
47.97416	2659.207		-45.44852	
48.02827	2656.725		-45.44216	
48.08238	2654.252		-45.43776	
48.13649	2651.783		-45.43518	
48.19059	2649.311		-45.43425	
48.2447	2646.834		-45.43477	
48.29881	2644.361		-45.43652	
48.35292	2641.909		-45.43923	
48.40702	2639.489		-45.44266	
48.46113	2637.102		-45.44652	
48.51524	2634.747		-45.45051	
48.56935	2632.413		-45.45432	
48.62346	2630.082		-45.45763	
48.67756	2627.739		-45.46014	
48.73167	2625.369		-45.46161	
48.78578	2622.965		-45.46182	
48.83989	2620.524		-45.46062	
48.89399	2618.055		-45.45792	
48.9481	2615.564		-45.45364	
49.00221	2613.054		-45.44777	
49.05632	2610.526		-45.44028	
49.11042	2607.988		-45.43121	
49.16453	2605.444		-45.42056	
49.21864	2602.901		-45.40837	
49.27275	2600.359		-45.39465	
49.32685	2597.821		-45.37943	
49.38096	2595.292		-45.36268	
49.43507	2592.781		-45.34436	
49.48918	2590.287		-45.32436	
49.54329	2587.807		-45.30257	
49.59739	2585.328		-45.27886	
49.6515	2582.84		-45.2531	
49.70561	2580.342		-45.2252	
49.75972	2577.84		-45.19513	
49.81382	2575.345		-45.16293	
49.86793	2572.863		-45.12866	
49.92204	2570.401		-45.09248	
49.97615	2567.966		-45.05459	
50.03025	2565.559		-45.01523	
50.08436	2563.174		-44.97463	
50.13847	2560.801		-44.93304	
50.19258	2558.431		-44.89074	
50.24669	2556.052		-44.84798	
50.30079	2553.659		-44.80506	
50.3549	2551.247		-44.76221	
50.40901	2548.812		-44.71963	
50.46312	2546.353		-44.67748	
50.51722	2543.872		-44.63591	
50.57133	2541.374		-44.59504	
50.62544	2538.868		-44.555	
50.67955	2536.369		-44.51591	
50.73365	2533.888		-44.47789	
50.78776	2531.432		-44.44105	
50.84187	2529.003		-44.40549	
50.89598	2526.599		-44.37133	
50.95008	2524.215		-44.33861	
51.00419	2521.84		-44.30736	
51.0583	2519.464		-44.27755	
51.11241	2517.079		-44.24913	
51.16652	2514.681		-44.22199	
51.22062	2512.264		-44.19603	
51.27473	2509.829		-44.1711	
51.32884	2507.385		-44.14701	
51.38295	2504.948		-44.1235	
51.43705	2502.537		-44.10026	
51.49116	2500.167		-44.07688	
51.54527	2497.847		-44.05291	
51.59937	2495.574		-44.0279	
51.65348	2493.338		-44.00137	
51.70759	2491.128		-43.97289	
51.7617	2488.938		-43.94205	
51.8158	2486.754		-43.90851	
51.86991	2484.566		-43.87201	
51.92402	2482.364		-43.83237	
51.97813	2480.145		-43.78946	
52.03223	2477.901		-43.74323	
52.08634	2475.632		-43.69364	
52.14045	2473.335		-43.64075	
52.19456	2471.013		-43.58466	
52.24866	2468.668		-43.52556	
52.30277	2466.303		-43.46371	
52.35688	2463.926		-43.39941	
52.41099	2461.543		-43.33302	
52.4651	2459.158		-43.2649	
52.5192	2456.772		-43.19548	
52.57331	2454.382		-43.12517	
52.62742	2451.98		-43.05438	
52.68153	2449.563		-42.98353	
52.73563	2447.127		-42.91301	
52.78974	2444.666		-42.84324	
52.84385	2442.181		-42.77461	
52.89796	2439.678		-42.70751	
52.95206	2437.165		-42.64229	
53.00617	2434.649		-42.57927	
53.06028	2432.131		-42.5187	
53.11439	2429.615		-42.46081	
53.1685	2427.104		-42.40577	
53.2226	2424.598		-42.35368	
53.27671	2422.108		-42.30462	
53.33082	2419.641		-42.25856	
53.38493	2417.206		-42.21539	
53.43903	2414.81		-42.17491	
53.49314	2412.461		-42.13686	
53.54725	2410.162		-42.1009	
53.60136	2407.911		-42.06666	
53.65546	2405.704		-42.03371	
53.70957	2403.534		-42.00164	
53.76368	2401.391		-41.97004	
53.81779	2399.263		-41.93854	
53.87189	2397.144		-41.90684	
53.926	2395.031		-41.87469	
53.98011	2392.93		-41.84189	
54.03422	2390.842		-41.80828	
54.08833	2388.768		-41.7737	
54.14243	2386.71		-41.73807	
54.19654	2384.667		-41.70132	
54.25065	2382.635		-41.66349	
54.30476	2380.603		-41.62465	
54.35886	2378.558		-41.58493	
54.41297	2376.487		-41.54451	
54.46708	2374.387		-41.5036	
54.52119	2372.266		-41.46239	
54.57529	2370.135		-41.42113	
54.6294	2368.002		-41.38001	
54.68351	2365.865		-41.33928	
54.73762	2363.718		-41.29914	
54.79173	2361.555		-41.25982	
54.84583	2359.373		-41.22153	
54.89994	2357.175		-41.18448	
54.95404	2354.97		-41.14886	
55.00815	2352.759		-41.11486	
55.06226	2350.538		-41.08265	
55.11637	2348.305		-41.05238	
55.17048	2346.055		-41.02421	
55.22458	2343.781		-40.99824	
55.27869	2341.478		-40.97454	
55.3328	2339.141		-40.95314	
55.38691	2336.774		-40.93399	
55.44101	2334.385		-40.91702	
55.49512	2331.984		-40.90205	
55.54923	2329.585		-40.88889	
55.60334	2327.202		-40.87725	
55.65744	2324.844		-40.86683	
55.71155	2322.516		-40.85726	
55.76566	2320.22		-40.84821	
55.81977	2317.95		-40.83932	
55.87387	2315.698		-40.83029	
55.92798	2313.458		-40.82084	
55.98209	2311.229		-40.8107	
56.0362	2309.003		-40.79966	
56.09031	2306.77		-40.78752	
56.14441	2304.524		-40.77409	
56.19852	2302.27		-40.75923	
56.25263	2300.016		-40.74284	
