T[Â°C]	330nm [counts / mm]	S.D.	First derivative	S.D. of first derivative
19.99899	7829.218		-114.4272	
20.05298	7823.653		-114.3091	
20.10697	7818.081		-114.1897	
20.16096	7812.5		-114.0689	
20.21496	7806.909		-113.9469	
20.26895	7801.307		-113.8234	
20.32294	7795.695		-113.6987	
20.37693	7790.073		-113.5725	
20.43092	7784.438		-113.445	
20.48491	7778.789		-113.3161	
20.53891	7773.124		-113.1859	
20.5929	7767.442		-113.0543	
20.64689	7761.744		-112.9214	
20.70088	7756.028		-112.7872	
20.75487	7750.298		-112.6517	
20.80886	7744.555		-112.5151	
20.86285	7738.803		-112.3772	
20.91685	7733.041		-112.2382	
20.97084	7727.248		-112.0981	
21.02483	7721.13		-111.9569	
21.07882	7714.978		-111.8148	
21.13281	7708.803		-111.6718	
21.1868	7702.614		-111.5278	
21.2408	7696.399		-111.3831	
21.29479	7690.14		-111.2377	
21.34878	7683.829		-111.0917	
21.40277	7677.478		-110.945	
21.45676	7671.113		-110.7978	
21.51075	7664.756		-110.6501	
21.56474	7658.433		-110.502	
21.61873	7652.16		-110.3536	
21.67273	7645.936		-110.2049	
21.72672	7639.749		-110.056	
21.78071	7633.592		-109.907	
21.8347	7627.47		-109.7579	
21.88869	7621.396		-109.6087	
21.94268	7615.389		-109.4596	
21.99668	7609.455		-109.3105	
22.05067	7603.592		-109.1614	
22.10466	7597.785		-109.0123	
22.15865	7592.014		-108.863	
22.21264	7586.273		-108.7135	
22.26663	7580.572		-108.5634	
22.32063	7574.899		-108.4122	
22.37462	7569.233		-108.2591	
22.42861	7563.551		-108.1029	
22.4826	7557.833		-107.9417	
22.53659	7552.065		-107.7731	
22.59058	7546.233		-107.5948	
22.64457	7540.327		-107.4017	
22.69856	7534.341		-107.2107	
22.75256	7528.281		-107.0223	
22.80655	7522.157		-106.8369	
22.86054	7515.991		-106.6546	
22.91453	7509.826		-106.4759	
22.96852	7503.713		-106.3009	
23.02251	7497.693		-106.1299	
23.07651	7491.792		-105.9633	
23.1305	7486.027		-105.8012	
23.18449	7480.399		-105.6441	
23.23848	7474.892		-105.492	
23.29247	7469.479		-105.3451	
23.34646	7464.119		-105.2038	
23.40045	7458.764		-105.068	
23.45444	7453.382		-104.9379	
23.50844	7447.964		-104.8136	
23.56243	7442.52		-104.6952	
23.61642	7437.061		-104.5829	
23.67041	7431.602		-104.4764	
23.7244	7426.165		-104.376	
23.77839	7420.761		-104.2813	
23.83239	7415.406		-104.1924	
23.88638	7410.113		-104.1091	
23.94037	7404.883		-104.0313	
23.99436	7399.707		-103.9592	
24.04835	7394.555		-103.8925	
24.10234	7389.385		-103.8313	
24.15633	7384.163		-103.7753	
24.21033	7378.873		-103.7244	
24.26432	7373.507		-103.6783	
24.31831	7368.06		-103.6369	
24.3723	7362.528		-103.6001	
24.42629	7356.912		-103.5679	
24.48028	7351.228		-103.5403	
24.53428	7345.498		-103.5173	
24.58827	7339.747		-103.499	
24.64226	7333.997		-103.4854	
24.69625	7328.261		-103.4763	
24.75024	7322.54		-103.4717	
24.80423	7316.831		-103.4714	
24.85822	7311.127		-103.4752	
24.91221	7305.431		-103.4826	
24.96621	7299.745		-103.493	
25.0202	7294.069		-103.5057	
25.07419	7288.396		-103.5201	
25.12818	7282.719		-103.5351	
25.18217	7277.03		-103.55	
25.23616	7271.331		-103.564	
25.29016	7265.628		-103.576	
25.34415	7259.925		-103.5854	
25.39814	7254.225		-103.5915	
25.45213	7248.534		-103.5938	
25.50612	7242.857		-103.5916	
25.56011	7237.19		-103.5847	
25.61411	7231.52		-103.5727	
25.6681	7225.834		-103.5554	
25.72209	7220.138		-103.5325	
25.77608	7214.446		-103.5041	
25.83007	7208.775		-103.4699	
25.88406	7203.145		-103.4302	
25.93805	7197.565		-103.3849	
25.99204	7192.031		-103.3341	
26.04604	7186.524		-103.278	
26.10003	7181.021		-103.2165	
26.15402	7175.5		-103.1499	
26.20801	7169.953		-103.0781	
26.262	7164.372		-103.0013	
26.31599	7158.75		-102.9195	
26.36999	7153.085		-102.8331	
26.42398	7147.378		-102.7425	
26.47797	7141.641		-102.648	
26.53196	7135.884		-102.55	
26.58595	7130.123		-102.4492	
26.63994	7124.373		-102.346	
26.69393	7118.646		-102.2408	
26.74792	7112.956		-102.1342	
26.80192	7107.309		-102.0267	
26.85591	7101.7		-101.9186	
26.9099	7096.116		-101.81	
26.96389	7090.552		-101.701	
27.01788	7085.004		-101.5912	
27.07187	7079.476		-101.4805	
27.12587	7073.967		-101.3684	
27.17986	7068.483		-101.2547	
27.23385	7063.031		-101.1389	
27.28784	7057.627		-101.0209	
27.34183	7052.285		-100.9005	
27.39582	7047.008		-100.7779	
27.44981	7041.803		-100.6532	
27.50381	7036.674		-100.5271	
27.5578	7031.621		-100.4001	
27.61179	7026.619		-100.2732	
27.66578	7021.63		-100.1472	
27.71977	7016.616		-100.0233	
27.77376	7011.539		-99.90224	
27.82775	7006.379		-99.78518	
27.88175	7001.134		-99.67296	
27.93574	6995.813		-99.56638	
27.98973	6990.426		-99.46612	
28.04372	6984.99		-99.37268	
28.09771	6979.518		-99.28645	
28.1517	6974.021		-99.20766	
28.20569	6968.513		-99.13644	
28.25969	6962.999		-99.07282	
28.31368	6957.487		-99.01683	
28.36767	6951.98		-98.96836	
28.42166	6946.475		-98.92727	
28.47565	6940.97		-98.8933	
28.52964	6935.466		-98.86608	
28.58364	6929.965		-98.84513	
28.63763	6924.477		-98.82989	
28.69162	6919.007		-98.81971	
28.74561	6913.568		-98.81389	
28.7996	6908.173		-98.81161	
28.85359	6902.832		-98.81198	
28.90759	6897.546		-98.814	
28.96158	6892.31		-98.8166	
29.01557	6887.113		-98.81864	
29.06956	6881.948		-98.81895	
29.12355	6876.817		-98.81635	
29.17754	6871.722		-98.80968	
29.23153	6866.657		-98.79781	
29.28552	6861.61		-98.77972	
29.33952	6856.571		-98.75449	
29.39351	6851.531		-98.72138	
29.4475	6846.487		-98.67986	
29.50149	6841.441		-98.62969	
29.55548	6836.4		-98.5709	
29.60947	6831.362		-98.5038	
29.66347	6826.32		-98.42893	
29.71746	6821.253		-98.34709	
29.77145	6816.13		-98.25922	
29.82544	6810.93		-98.16643	
29.87943	6805.636		-98.06989	
29.93342	6800.236		-97.97087	
29.98741	6794.725		-97.87059	
30.0414	6789.103		-97.77026	
30.0954	6783.374		-97.67098	
30.14939	6777.559		-97.57375	
30.20338	6771.694		-97.47942	
30.25737	6765.827		-97.3888	
30.31136	6759.997		-97.30257	
30.36535	6754.231		-97.22131	
30.41935	6748.544		-97.14552	
30.47334	6742.937		-97.07546	
30.52733	6737.396		-97.01131	
30.58132	6731.915		-96.95302	
30.63531	6726.475		-96.90043	
30.6893	6721.062		-96.8532	
30.74329	6715.666		-96.81084	
30.79729	6710.282		-96.77275	
30.85128	6704.909		-96.73816	
30.90527	6699.545		-96.70623	
30.95926	6694.192		-96.67607	
31.01325	6688.866		-96.64675	
31.06724	6683.601		-96.61732	
31.12123	6678.427		-96.5869	
31.17523	6673.363		-96.55457	
31.22922	6668.42		-96.51946	
31.28321	6663.603		-96.48074	
31.3372	6658.898		-96.43762	
31.39119	6654.279		-96.38937	
31.44518	6649.715		-96.33534	
31.49917	6645.169		-96.27499	
31.55317	6640.606		-96.20792	
31.60716	6635.995		-96.13392	
31.66115	6631.311		-96.05302	
31.71514	6626.528		-95.9655	
31.76913	6621.641		-95.87189	
31.82312	6616.66		-95.77292	
31.87712	6611.613		-95.66953	
31.93111	6606.53		-95.56283	
31.9851	6601.431		-95.454	
32.03909	6596.322		-95.34433	
32.09308	6591.201		-95.23505	
32.14707	6586.07		-95.12735	
32.20107	6580.921		-95.02232	
32.25505	6575.743		-94.9209	
32.30905	6570.525		-94.82388	
32.36304	6565.265		-94.73189	
32.41703	6559.963		-94.64535	
32.47102	6554.618		-94.5645	
32.52501	6549.227		-94.48935	
32.57901	6543.8		-94.41975	
32.633	6538.35		-94.35544	
32.68699	6532.892		-94.29603	
32.74098	6527.44		-94.24113	
32.79497	6522.003		-94.19031	
32.84896	6516.59		-94.14314	
32.90295	6511.204		-94.09914	
32.95694	6505.85		-94.05781	
33.01094	6500.538		-94.01863	
33.06493	6495.277		-93.98107	
33.11892	6490.063		-93.94462	
33.17291	6484.884		-93.90877	
33.2269	6479.739		-93.87302	
33.2809	6474.628		-93.83684	
33.33488	6469.552		-93.79975	
33.38888	6464.52		-93.76125	
33.44287	6459.54		-93.72086	
33.49686	6454.613		-93.6781	
33.55085	6449.731		-93.63255	
33.60484	6444.876		-93.58386	
33.65883	6440.034		-93.53175	
33.71283	6435.183		-93.47606	
33.76682	6430.312		-93.41682	
33.82081	6425.418		-93.35417	
33.8748	6420.497		-93.28844	
33.92879	6415.546		-93.22008	
33.98278	6410.565		-93.1497	
34.03677	6405.561		-93.07802	
34.09077	6400.547		-93.00581	
34.14476	6395.542		-92.93391	
34.19875	6390.554		-92.86316	
34.25274	6385.574		-92.79433	
34.30673	6380.593		-92.72809	
34.36072	6375.606		-92.66501	
34.41471	6370.609		-92.60554	
34.4687	6365.603		-92.54997	
34.5227	6360.593		-92.49843	
34.57669	6355.587		-92.45092	
34.63068	6350.602		-92.4073	
34.68467	6345.643		-92.36736	
34.73866	6340.713		-92.33084	
34.79266	6335.809		-92.29743	
34.84665	6330.931		-92.26684	
34.90064	6326.076		-92.23872	
34.95463	6321.246		-92.21275	
35.00862	6316.443		-92.18851	
35.06261	6311.675		-92.16566	
35.1166	6306.938		-92.14384	
35.1706	6302.222		-92.12273	
35.22459	6297.514		-92.102	
35.27858	6292.791		-92.08135	
35.33257	6288.024		-92.06047	
35.38656	6283.192		-92.03902	
35.44055	6278.285		-92.01665	
35.49454	6273.309		-91.99303	
35.54853	6268.278		-91.96779	
35.60253	6263.211		-91.94056	
35.65652	6258.123		-91.91095	
35.71051	6253.02		-91.87857	
35.7645	6247.909		-91.84306	
35.81849	6242.79		-91.80409	
35.87249	6237.658		-91.76141	
35.92648	6232.507		-91.71484	
35.98047	6227.333		-91.66427	
36.03446	6222.139		-91.60965	
36.08845	6216.94		-91.55101	
36.14244	6211.761		-91.48843	
36.19643	6206.616		-91.42206	
36.25042	6201.507		-91.35205	
36.30442	6196.428		-91.27861	
36.35841	6191.371		-91.202	
36.4124	6186.327		-91.12247	
36.46639	6181.288		-91.04031	
36.52038	6176.248		-90.95583	
36.57438	6171.205		-90.86927	
36.62836	6166.167		-90.78093	
36.68236	6161.135		-90.69099	
36.73635	6156.119		-90.59955	
36.79034	6151.133		-90.50662	
36.84433	6146.191		-90.4122	
36.89832	6141.293		-90.31624	
36.95231	6136.43		-90.2187	
37.00631	6131.585		-90.11957	
37.0603	6126.74		-90.01888	
37.11429	6121.878		-89.91669	
37.16828	6116.999		-89.81322	
37.22227	6112.119		-89.70869	
37.27626	6107.25		-89.60338	
37.33025	6102.4		-89.49764	
37.38425	6097.566		-89.39183	
37.43824	6092.747		-89.28638	
37.49223	6087.95		-89.18172	
37.54622	6083.183		-89.07831	
37.60021	6078.45		-88.97659	
37.6542	6073.748		-88.87698	
37.70819	6069.072		-88.77985	
37.76219	6064.42		-88.68551	
37.81618	6059.786		-88.59416	
37.87017	6055.165		-88.50591	
37.92416	6050.553		-88.42081	
37.97815	6045.943		-88.33887	
38.03214	6041.333		-88.26005	
38.08614	6036.716		-88.18429	
38.14013	6032.097		-88.11153	
38.19412	6027.48		-88.04171	
38.24811	6022.87		-87.97475	
38.3021	6018.271		-87.91066	
38.35609	6013.692		-87.84947	
38.41008	6009.137		-87.79128	
38.46408	6004.604		-87.73624	
38.51807	6000.076		-87.68453	
38.57206	5995.538		-87.63641	
38.62605	5990.972		-87.59216	
38.68004	5986.362		-87.55202	
38.73403	5981.701		-87.51618	
38.78802	5976.993		-87.4847	
38.84201	5972.247		-87.45755	
38.89601	5967.471		-87.43465	
38.95	5962.681		-87.41584	
39.00399	5957.889		-87.40096	
39.05798	5953.111		-87.38982	
39.11197	5948.35		-87.38226	
39.16597	5943.604		-87.37809	
39.21996	5938.873		-87.37713	
39.27395	5934.157		-87.37919	
39.32794	5929.447		-87.38412	
39.38193	5924.722		-87.39173	
39.43592	5919.965		-87.40183	
39.48991	5915.172		-87.41421	
39.5439	5910.35		-87.42857	
39.5979	5905.5		-87.44461	
39.65189	5900.63		-87.46194	
39.70588	5895.744		-87.48016	
39.75987	5890.845		-87.49883	
39.81386	5885.941		-87.51744	
39.86786	5881.045		-87.53539	
39.92184	5876.171		-87.55197	
39.97584	5871.331		-87.56648	
40.02983	5866.527		-87.57818	
40.08382	5861.759		-87.5863	
40.13781	5857.027		-87.59005	
40.1918	5852.324		-87.58865	
40.24579	5847.636		-87.58135	
40.29979	5842.946		-87.5675	
40.35378	5838.252		-87.54658	
40.40777	5833.561		-87.51821	
40.46176	5828.877		-87.48221	
40.51575	5824.203		-87.43855	
40.56974	5819.538		-87.38734	
40.62373	5814.877		-87.32891	
40.67773	5810.222		-87.26366	
40.73172	5805.573		-87.19211	
40.78571	5800.929		-87.11485	
40.8397	5796.29		-87.03251	
40.89369	5791.649		-86.94574	
40.94768	5787.004		-86.85521	
41.00167	5782.353		-86.76154	
41.05567	5777.694		-86.66534	
41.10966	5773.021		-86.56726	
41.16365	5768.319		-86.46786	
41.21764	5763.578		-86.36774	
41.27163	5758.806		-86.26744	
41.32562	5754.019		-86.16755	
41.37962	5749.227		-86.06858	
41.43361	5744.44		-85.97105	
41.4876	5739.665		-85.87539	
41.54159	5734.897		-85.78201	
41.59558	5730.126		-85.69126	
41.64957	5725.341		-85.60346	
41.70356	5720.529		-85.51886	
41.75756	5715.694		-85.43771	
41.81155	5710.843		-85.36022	
41.86554	5705.99		-85.28658	
41.91953	5701.147		-85.21684	
41.97352	5696.329		-85.15098	
42.02751	5691.549		-85.08891	
42.0815	5686.832		-85.03042	
42.13549	5682.205		-84.97528	
42.18949	5677.683		-84.92316	
42.24348	5673.265		-84.8737	
42.29747	5668.932		-84.82652	
42.35146	5664.662		-84.7813	
42.40545	5660.432		-84.73775	
42.45945	5656.219		-84.6957	
42.51344	5652.012		-84.65498	
42.56743	5647.798		-84.61548	
42.62142	5643.57		-84.57711	
42.67541	5639.318		-84.53981	
42.7294	5635.044		-84.50361	
42.78339	5630.749		-84.46861	
42.83738	5626.421		-84.43497	
42.89138	5622.051		-84.40298	
42.94537	5617.636		-84.37293	
42.99936	5613.179		-84.3452	
43.05335	5608.69		-84.32008	
43.10734	5604.181		-84.29787	
43.16133	5599.658		-84.27878	
43.21532	5595.122		-84.26295	
43.26932	5590.569		-84.2505	
43.32331	5585.991		-84.24139	
43.3773	5581.379		-84.23552	
43.43129	5576.739		-84.2327	
43.48528	5572.077		-84.23267	
43.53927	5567.402		-84.23515	
43.59327	5562.722		-84.23978	
43.64725	5558.048		-84.24625	
43.70125	5553.387		-84.25416	
43.75524	5548.748		-84.26314	
43.80923	5544.134		-84.27283	
43.86322	5539.542		-84.28291	
43.91721	5534.977		-84.29299	
43.97121	5530.435		-84.30264	
44.0252	5525.907		-84.31137	
44.07919	5521.39		-84.31864	
44.13318	5516.877		-84.32387	
44.18717	5512.363		-84.32645	
44.24116	5507.842		-84.32574	
44.29515	5503.316		-84.32112	
44.34915	5498.781		-84.31198	
44.40314	5494.221		-84.29778	
44.45713	5489.634		-84.27802	
44.51112	5485.03		-84.2523	
44.56511	5480.415		-84.2203	
44.6191	5475.786		-84.18183	
44.6731	5471.129		-84.13681	
44.72709	5466.444		-84.08529	
44.78108	5461.742		-84.02743	
44.83507	5457.041		-83.96355	
44.88906	5452.344		-83.89406	
44.94305	5447.651		-83.81951	
44.99704	5442.953		-83.74055	
45.05104	5438.245		-83.65791	
45.10503	5433.529		-83.57235	
45.15902	5428.823		-83.48463	
45.21301	5424.146		-83.39552	
45.267	5419.51		-83.30571	
45.32099	5414.912		-83.21584	
45.37498	5410.349		-83.12639	
45.42897	5405.816		-83.03776	
45.48297	5401.3		-82.95024	
45.53696	5396.782		-82.86409	
45.59095	5392.254		-82.77946	
45.64494	5387.72		-82.69651	
45.69893	5383.191		-82.61533	
45.75293	5378.675		-82.53598	
45.80692	5374.17		-82.45853	
45.86091	5369.678		-82.383	
45.9149	5365.215		-82.30943	
45.96889	5360.792		-82.23788	
46.02288	5356.42		-82.1684	
46.07687	5352.1		-82.10103	
46.13086	5347.829		-82.03577	
46.18486	5343.595		-81.97256	
46.23885	5339.396		-81.91129	
46.29284	5335.218		-81.8518	
46.34683	5331.044		-81.79384	
46.40082	5326.853		-81.73713	
46.45481	5322.629		-81.68132	
46.5088	5318.376		-81.62606	
46.5628	5314.107		-81.57097	
46.61679	5309.831		-81.51575	
46.67078	5305.553		-81.46017	
46.72477	5301.286		-81.40407	
46.77876	5297.047		-81.34738	
46.83275	5292.854		-81.29013	
46.88675	5288.704		-81.2324	
46.94073	5284.59		-81.17433	
46.99473	5280.488		-81.11614	
47.04872	5276.371		-81.05811	
47.10271	5272.214		-81.00051	
47.1567	5268		-80.94358	
47.21069	5263.721		-80.88753	
47.26469	5259.368		-80.8325	
47.31868	5254.94		-80.77856	
47.37267	5250.443		-80.72569	
47.42666	5245.895		-80.67378	
47.48065	5241.318		-80.62264	
47.53464	5236.729		-80.57205	
47.58863	5232.139		-80.52177	
47.64263	5227.558		-80.47154	
47.69662	5222.996		-80.42114	
47.75061	5218.456		-80.37026	
47.8046	5213.934		-80.3186	
47.85859	5209.428		-80.26579	
47.91258	5204.945		-80.21152	
47.96658	5200.481		-80.15549	
48.02057	5196.027		-80.09749	
48.07456	5191.572		-80.03734	
48.12855	5187.11		-79.97493	
48.18254	5182.635		-79.9102	
48.23653	5178.15		-79.84315	
48.29052	5173.664		-79.77374	
48.34452	5169.194		-79.70197	
48.39851	5164.753		-79.62785	
48.4525	5160.351		-79.55134	
48.50649	5155.982		-79.47241	
48.56048	5151.642		-79.39098	
48.61447	5147.325		-79.307	
48.66846	5143.022		-79.22038	
48.72245	5138.732		-79.13116	
48.77645	5134.454		-79.03936	
48.83044	5130.188		-78.94512	
48.88443	5125.934		-78.84864	
48.93842	5121.694		-78.75021	
48.99241	5117.469		-78.65016	
49.04641	5113.267		-78.54897	
49.1004	5109.095		-78.44713	
49.15439	5104.945		-78.34512	
49.20838	5100.81		-78.24342	
49.26237	5096.672		-78.1425	
49.31636	5092.512		-78.04281	
49.37035	5088.319		-77.94474	
49.42434	5084.101		-77.84866	
49.47834	5079.874		-77.75491	
49.53233	5075.654		-77.6638	
49.58632	5071.456		-77.57561	
49.64031	5067.298		-77.49062	
49.6943	5063.189		-77.409	
49.74829	5059.132		-77.33089	
49.80228	5055.123		-77.25644	
49.85628	5051.157		-77.18571	
49.91027	5047.231		-77.11884	
49.96426	5043.336		-77.05598	
50.01825	5039.457		-76.99726	
50.07224	5035.578		-76.94286	
50.12623	5031.678		-76.89288	
50.18023	5027.737		-76.84744	
50.23421	5023.743		-76.8066	
50.28821	5019.698		-76.77036	
50.3422	5015.611		-76.73865	
50.39619	5011.496		-76.71135	
50.45018	5007.362		-76.68828	
50.50417	5003.215		-76.66918	
50.55817	4999.063		-76.65372	
50.61216	4994.915		-76.64156	
50.66615	4990.776		-76.63226	
50.72014	4986.653		-76.62539	
50.77413	4982.551		-76.62049	
50.82812	4978.46		-76.61708	
50.88211	4974.371		-76.61463	
50.93611	4970.267		-76.61259	
50.9901	4966.145		-76.6104	
51.04409	4962.004		-76.60751	
51.09808	4957.848		-76.60332	
51.15207	4953.678		-76.59726	
51.20606	4949.497		-76.58878	
51.26006	4945.298		-76.57731	
51.31404	4941.08		-76.56232	
51.36804	4936.837		-76.54333	
51.42203	4932.573		-76.51987	
51.47602	4928.288		-76.49158	
51.53001	4923.981		-76.45818	
51.584	4919.66		-76.4194	
51.638	4915.333		-76.37499	
51.69199	4911.02		-76.32471	
51.74598	4906.741		-76.26829	
51.79997	4902.51		-76.20556	
51.85396	4898.332		-76.13641	
51.90795	4894.211		-76.0609	
51.96194	4890.14		-75.97919	
52.01593	4886.1		-75.89157	
52.06993	4882.059		-75.79843	
52.12392	4877.994		-75.70023	
52.17791	4873.89		-75.59747	
52.2319	4869.744		-75.49075	
52.28589	4865.564		-75.38069	
52.33989	4861.36		-75.26794	
52.39388	4857.134		-75.15316	
52.44787	4852.884		-75.03698	
52.50186	4848.615		-74.92004	
52.55585	4844.338		-74.80291	
52.60984	4840.066		-74.68616	
52.66383	4835.809		-74.57033	
52.71782	4831.585		-74.45593	
52.77182	4827.406		-74.34346	
52.82581	4823.274		-74.23337	
52.8798	4819.194		-74.12604	
52.93379	4815.167		-74.02177	
52.98778	4811.187		-73.92082	
53.04177	4807.245		-73.8233	
53.09576	4803.321		-73.72928	
53.14976	4799.395		-73.63873	
53.20375	4795.457		-73.55161	
53.25774	4791.499		-73.46783	
53.31173	4787.52		-73.38733	
53.36572	4783.54		-73.31007	
53.41971	4779.585		-73.23605	
53.47371	4775.686		-73.16531	
53.52769	4771.857		-73.09796	
53.58169	4768.105		-73.03405	
53.63568	4764.427		-72.97363	
53.68967	4760.825		-72.91665	
53.74366	4757.295		-72.86305	
53.79765	4753.828		-72.81275	
53.85165	4750.407		-72.76569	
53.90564	4747.015		-72.72183	
53.95963	4743.623		-72.68122	
54.01362	4740.195		-72.64391	
54.06761	4736.689		-72.61	
54.1216	4733.074		-72.57962	
54.17559	4729.338		-72.55296	
54.22959	4725.494		-72.53025	
54.28358	4721.568		-72.51182	
54.33757	4717.591		-72.49796	
54.39156	4713.584		-72.48897	
54.44555	4709.563		-72.48508	
54.49954	4705.544		-72.48645	
54.55354	4701.54		-72.49311	
54.60752	4697.557		-72.505	
54.66152	4693.599		-72.52198	
54.71551	4689.662		-72.54381	
54.7695	4685.722		-72.57015	
54.82349	4681.753		-72.60056	
54.87748	4677.742		-72.63442	
54.93148	4673.686		-72.67099	
54.98547	4669.586		-72.70937	
55.03946	4665.457		-72.74857	
55.09345	4661.312		-72.78753	
55.14744	4657.171		-72.82511	
55.20143	4653.047		-72.8602	
55.25542	4648.94		-72.89172	
55.30941	4644.851		-72.91866	
55.36341	4640.786		-72.94012	
55.4174	4636.752		-72.95527	
55.47139	4632.754		-72.96336	
55.52538	4628.79		-72.96372	
55.57937	4624.853		-72.9557	
55.63337	4620.937		-72.93871	
55.68736	4617.033		-72.9122	
55.74135	4613.137		-72.87574	
55.79534	4609.243		-72.82899	
55.84933	4605.338		-72.7717	
55.90332	4601.413		-72.70379	
55.95731	4597.461		-72.6253	
56.0113	4593.476		-72.53643	
56.0653	4589.45		-72.43751	
56.11929	4585.386		-72.32903	
56.17328	4581.298		-72.21163	
56.22727	4577.21		-72.08616	
