T[Â°C]	350nm [counts / mm]	S.D.	First derivative	S.D. of first derivative
20.00113	3053.874		-47.68059	
20.05508	3051.143		-47.56171	
20.10903	3048.416		-47.4437	
20.16298	3045.696		-47.32658	
20.21693	3042.982		-47.2104	
20.27087	3040.274		-47.09518	
20.32482	3037.572		-46.98095	
20.37877	3034.875		-46.86773	
20.43272	3032.184		-46.75557	
20.48667	3029.497		-46.64447	
20.54062	3026.814		-46.53446	
20.59456	3024.135		-46.42556	
20.64851	3021.458		-46.31779	
20.70246	3018.784		-46.21115	
20.75641	3016.111		-46.10564	
20.81036	3013.438		-46.00128	
20.8643	3010.765		-45.89806	
20.91825	3008.095		-45.79596	
20.9722	3005.446		-45.69498	
21.02615	3002.889		-45.59509	
21.0801	3000.353		-45.49627	
21.13404	2997.844		-45.39846	
21.18799	2995.368		-45.30164	
21.24194	2992.927		-45.20576	
21.29589	2990.522		-45.11075	
21.34984	2988.152		-45.01657	
21.40379	2985.817		-44.92315	
21.45774	2983.514		-44.83041	
21.51168	2981.241		-44.73829	
21.56563	2978.993		-44.64671	
21.61958	2976.766		-44.55559	
21.67353	2974.555		-44.46483	
21.72748	2972.349		-44.37436	
21.78142	2970.14		-44.28405	
21.83537	2967.917		-44.19382	
21.88932	2965.677		-44.10355	
21.94327	2963.421		-44.0131	
21.99722	2961.157		-43.92234	
22.05116	2958.895		-43.83114	
22.10511	2956.653		-43.73935	
22.15906	2954.441		-43.64682	
22.21301	2952.257		-43.55344	
22.26696	2950.094		-43.45913	
22.32091	2947.947		-43.36394	
22.37486	2945.808		-43.26807	
22.4288	2943.667		-43.17205	
22.48275	2941.512		-43.07682	
22.5367	2939.332		-42.98391	
22.59065	2937.123		-42.89523	
22.6446	2934.884		-42.84076	
22.69854	2932.622		-42.78901	
22.75249	2930.343		-42.74014	
22.80644	2928.053		-42.69433	
22.86039	2925.761		-42.65174	
22.91434	2923.468		-42.61253	
22.96828	2921.169		-42.57678	
23.02223	2918.852		-42.54455	
23.07618	2916.509		-42.51586	
23.13013	2914.136		-42.49063	
23.18408	2911.738		-42.46877	
23.23803	2909.319		-42.45006	
23.29197	2906.885		-42.43426	
23.34592	2904.442		-42.42103	
23.39987	2901.99		-42.40996	
23.45382	2899.53		-42.40063	
23.50777	2897.065		-42.39256	
23.56171	2894.601		-42.38533	
23.61566	2892.145		-42.37854	
23.66961	2889.707		-42.37186	
23.72356	2887.298		-42.36503	
23.77751	2884.929		-42.35785	
23.83146	2882.605		-42.35019	
23.8854	2880.323		-42.34196	
23.93935	2878.079		-42.33318	
23.9933	2875.859		-42.32385	
24.04725	2873.652		-42.31406	
24.1012	2871.446		-42.3039	
24.15515	2869.227		-42.2935	
24.20909	2866.99		-42.28299	
24.26304	2864.739		-42.27246	
24.31699	2862.48		-42.26202	
24.37094	2860.223		-42.2517	
24.42489	2857.975		-42.24157	
24.47883	2855.74		-42.23166	
24.53278	2853.516		-42.22198	
24.58673	2851.3		-42.21253	
24.64068	2849.083		-42.20329	
24.69463	2846.859		-42.19423	
24.74858	2844.624		-42.18531	
24.80252	2842.376		-42.17653	
24.85647	2840.114		-42.16792	
24.91042	2837.838		-42.15955	
24.96437	2835.547		-42.1515	
25.01832	2833.24		-42.14385	
25.07226	2830.92		-42.13673	
25.12621	2828.596		-42.13023	
25.18016	2826.281		-42.12452	
25.23411	2823.988		-42.11974	
25.28806	2821.726		-42.11604	
25.342	2819.496		-42.11352	
25.39595	2817.298		-42.11224	
25.4499	2815.128		-42.11216	
25.50385	2812.988		-42.1132	
25.5578	2810.878		-42.11519	
25.61175	2808.787		-42.1179	
25.6657	2806.7		-42.12109	
25.71964	2804.6		-42.1245	
25.77359	2802.471		-42.12785	
25.82754	2800.302		-42.13089	
25.88149	2798.09		-42.13339	
25.93544	2795.844		-42.1352	
25.98938	2793.578		-42.1362	
26.04333	2791.302		-42.13637	
26.09728	2789.023		-42.13574	
26.15123	2786.742		-42.1344	
26.20518	2784.458		-42.13247	
26.25912	2782.166		-42.13012	
26.31307	2779.857		-42.12746	
26.36702	2777.53		-42.12463	
26.42097	2775.182		-42.12172	
26.47492	2772.805		-42.11877	
26.52887	2770.398		-42.11581	
26.58282	2767.961		-42.11282	
26.63676	2765.497		-42.10971	
26.69071	2763.013		-42.10638	
26.74466	2760.52		-42.1027	
26.79861	2758.033		-42.09851	
26.85256	2755.571		-42.0937	
26.9065	2753.146		-42.08814	
26.96045	2750.764		-42.08172	
27.0144	2748.422		-42.07439	
27.06835	2746.113		-42.06608	
27.1223	2743.834		-42.0568	
27.17624	2741.58		-42.04657	
27.23019	2739.354		-42.03548	
27.28414	2737.152		-42.02365	
27.33809	2734.963		-42.01123	
27.39204	2732.771		-41.99833	
27.44599	2730.568		-41.98505	
27.49993	2728.35		-41.97143	
27.55388	2726.116		-41.95746	
27.60783	2723.874		-41.9431	
27.66178	2721.633		-41.92823	
27.71573	2719.399		-41.91277	
27.76967	2717.171		-41.89657	
27.82362	2714.944		-41.87946	
27.87757	2712.712		-41.86128	
27.93152	2710.476		-41.84183	
27.98547	2708.236		-41.82096	
28.03942	2705.994		-41.79856	
28.09336	2703.755		-41.77454	
28.14731	2701.521		-41.74889	
28.20126	2699.293		-41.72164	
28.25521	2697.072		-41.69291	
28.30916	2694.859		-41.66289	
28.36311	2692.65		-41.63182	
28.41705	2690.44		-41.60001	
28.471	2688.229		-41.56775	
28.52495	2686.018		-41.53539	
28.5789	2683.807		-41.50322	
28.63285	2681.598		-41.47151	
28.68679	2679.392		-41.44044	
28.74074	2677.191		-41.41018	
28.79469	2674.996		-41.38083	
28.84864	2672.81		-41.35241	
28.90259	2670.636		-41.32493	
28.95654	2668.475		-41.29833	
29.01048	2666.327		-41.2725	
29.06443	2664.187		-41.24728	
29.11838	2662.044		-41.22252	
29.17233	2659.89		-41.19801	
29.22628	2657.719		-41.17354	
29.28023	2655.524		-41.14893	
29.33417	2653.3		-41.12402	
29.38812	2651.044		-41.09869	
29.44207	2648.75		-41.07282	
29.49602	2646.416		-41.04634	
29.54997	2644.047		-41.0192	
29.60391	2641.655		-40.99137	
29.65786	2639.253		-40.96286	
29.71181	2636.86		-40.93369	
29.76576	2634.489		-40.90392	
29.81971	2632.145		-40.87354	
29.87366	2629.831		-40.84252	
29.9276	2627.545		-40.81083	
29.98155	2625.288		-40.77837	
30.0355	2623.056		-40.74509	
30.08945	2620.847		-40.7109	
30.1434	2618.658		-40.67576	
30.19734	2616.486		-40.63964	
30.25129	2614.328		-40.60253	
30.30524	2612.174		-40.56449	
30.35919	2610.02		-40.52563	
30.41314	2607.869		-40.48615	
30.46708	2605.723		-40.44632	
30.52103	2603.583		-40.40649	
30.57498	2601.452		-40.36708	
30.62893	2599.33		-40.32853	
30.68288	2597.215		-40.29132	
30.73683	2595.103		-40.2559	
30.79078	2592.987		-40.22269	
30.84472	2590.862		-40.19209	
30.89867	2588.727		-40.16438	
30.95262	2586.576		-40.13982	
31.00657	2584.411		-40.11855	
31.06052	2582.231		-40.10061	
31.11446	2580.035		-40.08599	
31.16841	2577.826		-40.07458	
31.22236	2575.61		-40.06622	
31.27631	2573.396		-40.06073	
31.33026	2571.189		-40.0579	
31.3842	2568.994		-40.05753	
31.43815	2566.813		-40.05941	
31.4921	2564.652		-40.06337	
31.54605	2562.511		-40.06921	
31.6	2560.389		-40.07677	
31.65395	2558.286		-40.08585	
31.70789	2556.208		-40.09626	
31.76184	2554.161		-40.10778	
31.81579	2552.14		-40.1202	
31.86974	2550.136		-40.13323	
31.92369	2548.139		-40.1466	
31.97763	2546.142		-40.15998	
32.03158	2544.141		-40.17303	
32.08553	2542.13		-40.18541	
32.13948	2540.11		-40.19678	
32.19343	2538.083		-40.20683	
32.24738	2536.05		-40.21527	
32.30132	2534.009		-40.22182	
32.35527	2531.96		-40.22624	
32.40922	2529.901		-40.22836	
32.46317	2527.824		-40.22806	
32.51712	2525.724		-40.22533	
32.57106	2523.598		-40.22025	
32.62502	2521.442		-40.21291	
32.67896	2519.251		-40.20349	
32.73291	2517.02		-40.1922	
32.78686	2514.75		-40.17927	
32.84081	2512.44		-40.16494	
32.89476	2510.095		-40.14948	
32.9487	2507.718		-40.13313	
33.00265	2505.314		-40.11614	
33.0566	2502.891		-40.09872	
33.11055	2500.458		-40.08104	
33.1645	2498.028		-40.06321	
33.21844	2495.614		-40.04532	
33.27239	2493.225		-40.02738	
33.32634	2490.866		-40.00941	
33.38029	2488.537		-39.99137	
33.43424	2486.237		-39.97321	
33.48819	2483.962		-39.95484	
33.54213	2481.709		-39.93615	
33.59608	2479.474		-39.91699	
33.65003	2477.254		-39.89721	
33.70398	2475.048		-39.8766	
33.75793	2472.855		-39.85497	
33.81187	2470.673		-39.83211	
33.86582	2468.498		-39.8078	
33.91977	2466.328		-39.78186	
33.97372	2464.171		-39.7541	
34.02767	2462.033		-39.72439	
34.08162	2459.919		-39.69259	
34.13556	2457.829		-39.65862	
34.18951	2455.767		-39.62243	
34.24346	2453.732		-39.58401	
34.29741	2451.721		-39.54341	
34.35136	2449.731		-39.5007	
34.4053	2447.755		-39.45599	
34.45925	2445.784		-39.4095	
34.5132	2443.814		-39.36149	
34.56715	2441.842		-39.31228	
34.6211	2439.865		-39.26223	
34.67505	2437.878		-39.21173	
34.72899	2435.876		-39.16121	
34.78294	2433.855		-39.11115	
34.83689	2431.815		-39.06202	
34.89084	2429.76		-39.01432	
34.94479	2427.698		-38.96857	
34.99873	2425.633		-38.92526	
35.05268	2423.561		-38.88486	
35.10663	2421.485		-38.84784	
35.16058	2419.411		-38.81457	
35.21453	2417.344		-38.78536	
35.26847	2415.288		-38.76045	
35.32243	2413.243		-38.73996	
35.37637	2411.205		-38.72393	
35.43032	2409.165		-38.7123	
35.48427	2407.116		-38.70493	
35.53822	2405.051		-38.7016	
35.59217	2402.962		-38.70204	
35.64611	2400.849		-38.70589	
35.70006	2398.715		-38.71277	
35.75401	2396.573		-38.72223	
35.80796	2394.432		-38.73379	
35.86191	2392.293		-38.74695	
35.91586	2390.16		-38.76118	
35.9698	2388.033		-38.77596	
36.02375	2385.912		-38.79078	
36.0777	2383.801		-38.80517	
36.13165	2381.695		-38.8187	
36.1856	2379.595		-38.83099	
36.23954	2377.502		-38.84167	
36.29349	2375.42		-38.85043	
36.34744	2373.351		-38.85696	
36.40139	2371.289		-38.86102	
36.45534	2369.224		-38.86239	
36.50928	2367.152		-38.8609	
36.56323	2365.07		-38.85646	
36.61718	2362.98		-38.849	
36.67113	2360.883		-38.83852	
36.72508	2358.78		-38.82508	
36.77903	2356.674		-38.80877	
36.83297	2354.568		-38.78972	
36.88692	2352.466		-38.76812	
36.94087	2350.367		-38.74417	
36.99482	2348.263		-38.71809	
37.04877	2346.143		-38.69011	
37.10271	2344.002		-38.6605	
37.15666	2341.845		-38.62948	
37.21061	2339.675		-38.59729	
37.26456	2337.497		-38.56413	
37.31851	2335.309		-38.53018	
37.37246	2333.112		-38.49561	
37.4264	2330.909		-38.46058	
37.48035	2328.706		-38.42524	
37.5343	2326.503		-38.38973	
37.58825	2324.302		-38.35415	
37.6422	2322.101		-38.3186	
37.69614	2319.904		-38.28319	
37.7501	2317.712		-38.24797	
37.80404	2315.535		-38.21297	
37.85799	2313.383		-38.17822	
37.91194	2311.268		-38.14369	
37.96589	2309.191		-38.10938	
38.01984	2307.154		-38.07528	
38.07378	2305.155		-38.04139	
38.12773	2303.183		-38.00769	
38.18168	2301.23		-37.97423	
38.23563	2299.292		-37.94103	
38.28958	2297.373		-37.90816	
38.34352	2295.471		-37.8757	
38.39747	2293.588		-37.84371	
38.45142	2291.718		-37.81229	
38.50537	2289.859		-37.78155	
38.55932	2288.004		-37.75159	
38.61327	2286.142		-37.72256	
38.66721	2284.262		-37.69459	
38.72116	2282.353		-37.66782	
38.77511	2280.41		-37.64242	
38.82906	2278.435		-37.61851	
38.88301	2276.436		-37.59621	
38.93695	2274.421		-37.5756	
38.9909	2272.394		-37.55673	
39.04485	2270.355		-37.53963	
39.0988	2268.305		-37.52428	
39.15275	2266.247		-37.51063	
39.2067	2264.184		-37.49861	
39.26064	2262.118		-37.48814	
39.31459	2260.051		-37.47911	
39.36854	2257.989		-37.47149	
39.42249	2255.933		-37.46517	
39.47644	2253.887		-37.46009	
39.53038	2251.854		-37.45618	
39.58433	2249.836		-37.45331	
39.63828	2247.834		-37.45137	
39.69223	2245.845		-37.45023	
39.74618	2243.867		-37.44976	
39.80013	2241.896		-37.4498	
39.85407	2239.927		-37.45016	
39.90802	2237.958		-37.45067	
39.96197	2235.984		-37.45114	
40.01592	2234.004		-37.4514	
40.06987	2232.017		-37.45125	
40.12381	2230.024		-37.45049	
40.17776	2228.024		-37.44893	
40.23171	2226.016		-37.44637	
40.28566	2223.999		-37.4427	
40.33961	2221.971		-37.4378	
40.39355	2219.928		-37.43162	
40.44751	2217.868		-37.42413	
40.50145	2215.787		-37.41531	
40.5554	2213.687		-37.40514	
40.60935	2211.573		-37.39363	
40.6633	2209.451		-37.38078	
40.71725	2207.324		-37.36661	
40.77119	2205.189		-37.35117	
40.82514	2203.045		-37.33452	
40.87909	2200.893		-37.31674	
40.93304	2198.737		-37.29788	
40.98699	2196.58		-37.27797	
41.04094	2194.432		-37.25703	
41.09488	2192.303		-37.23507	
41.14883	2190.2		-37.21206	
41.20278	2188.126		-37.18798	
41.25673	2186.079		-37.16282	
41.31068	2184.062		-37.13656	
41.36462	2182.072		-37.10924	
41.41857	2180.106		-37.08091	
41.47252	2178.161		-37.05162	
41.52647	2176.234		-37.02144	
41.58042	2174.317		-36.99045	
41.63437	2172.406		-36.95871	
41.68831	2170.497		-36.92632	
41.74226	2168.594		-36.8934	
41.79621	2166.692		-36.86007	
41.85016	2164.788		-36.82648	
41.90411	2162.88		-36.79277	
41.95805	2160.964		-36.75907	
42.012	2159.037		-36.72548	
42.06595	2157.098		-36.69206	
42.1199	2155.15		-36.65888	
42.17385	2153.199		-36.62598	
42.22779	2151.251		-36.59338	
42.28174	2149.309		-36.5611	
42.33569	2147.374		-36.52915	
42.38964	2145.445		-36.49757	
42.44359	2143.519		-36.4664	
42.49754	2141.587		-36.43565	
42.55148	2139.642		-36.40538	
42.60543	2137.678		-36.37563	
42.65938	2135.697		-36.34647	
42.71333	2133.701		-36.31798	
42.76728	2131.698		-36.29025	
42.82122	2129.691		-36.26338	
42.87517	2127.683		-36.23745	
42.92912	2125.678		-36.21255	
42.98307	2123.679		-36.18874	
43.03702	2121.689		-36.16603	
43.09097	2119.715		-36.14444	
43.14491	2117.768		-36.12392	
43.19886	2115.853		-36.10445	
43.25281	2113.967		-36.08595	
43.30676	2112.104		-36.06831	
43.36071	2110.254		-36.05145	
43.41465	2108.407		-36.03525	
43.46861	2106.551		-36.0196	
43.52255	2104.676		-36.00442	
43.5765	2102.773		-35.98959	
43.63045	2100.844		-35.97502	
43.68439	2098.895		-35.96066	
43.73835	2096.93		-35.94646	
43.79229	2094.954		-35.93244	
43.84624	2092.975		-35.91862	
43.90019	2090.996		-35.90506	
43.95414	2089.018		-35.89183	
44.00809	2087.038		-35.879	
44.06203	2085.056		-35.86665	
44.11598	2083.068		-35.85482	
44.16993	2081.074		-35.84358	
44.22388	2079.073		-35.83294	
44.27783	2077.065		-35.82293	
44.33178	2075.053		-35.8135	
44.38572	2073.034		-35.80462	
44.43967	2071.009		-35.79624	
44.49362	2068.983		-35.78832	
44.54757	2066.966		-35.78083	
44.60152	2064.969		-35.77378	
44.65546	2062.998		-35.76721	
44.70941	2061.059		-35.7612	
44.76336	2059.156		-35.75585	
44.81731	2057.288		-35.75124	
44.87126	2055.453		-35.74748	
44.92521	2053.648		-35.74465	
44.97915	2051.859		-35.74283	
45.0331	2050.072		-35.74208	
45.08705	2048.274		-35.74247	
45.141	2046.46		-35.74403	
45.19495	2044.627		-35.74679	
45.24889	2042.773		-35.75075	
45.30284	2040.899		-35.75587	
45.35679	2039.011		-35.76209	
45.41074	2037.118		-35.76932	
45.46469	2035.222		-35.77746	
45.51863	2033.325		-35.78639	
45.57258	2031.425		-35.79599	
45.62653	2029.521		-35.80611	
45.68048	2027.615		-35.81664	
45.73443	2025.7		-35.82744	
45.78838	2023.773		-35.83835	
45.84232	2021.832		-35.84923	
45.89627	2019.873		-35.85991	
45.95022	2017.891		-35.87023	
46.00417	2015.888		-35.88003	
46.05812	2013.869		-35.88914	
46.11206	2011.848		-35.89742	
46.16602	2009.839		-35.90473	
46.21996	2007.851		-35.91092	
46.27391	2005.889		-35.91584	
46.32786	2003.958		-35.91934	
46.38181	2002.056		-35.92126	
46.43576	2000.174		-35.92142	
46.4897	1998.306		-35.91964	
46.54365	1996.447		-35.91578	
46.5976	1994.593		-35.90968	
46.65155	1992.736		-35.90123	
46.7055	1990.868		-35.89034	
46.75945	1988.987		-35.87695	
46.81339	1987.086		-35.86101	
46.86734	1985.164		-35.84252	
46.92129	1983.217		-35.82152	
46.97524	1981.245		-35.7981	
47.02919	1979.253		-35.77243	
47.08313	1977.243		-35.74474	
47.13708	1975.22		-35.71528	
47.19103	1973.186		-35.68436	
47.24498	1971.142		-35.65226	
47.29893	1969.087		-35.61929	
47.35287	1967.027		-35.58573	
47.40682	1964.964		-35.55183	
47.46077	1962.899		-35.51784	
47.51472	1960.83		-35.48394	
47.56867	1958.759		-35.45032	
47.62262	1956.691		-35.41711	
47.67656	1954.628		-35.38441	
47.73051	1952.575		-35.35231	
47.78446	1950.541		-35.32082	
47.83841	1948.534		-35.28999	
47.89236	1946.562		-35.25979	
47.9463	1944.621		-35.23024	
48.00025	1942.706		-35.20133	
48.0542	1940.814		-35.17307	
48.10815	1938.946		-35.14548	
48.1621	1937.106		-35.1186	
48.21605	1935.291		-35.09248	
48.26999	1933.499		-35.06717	
48.32394	1931.727		-35.0427	
48.37789	1929.971		-35.01911	
48.43184	1928.228		-34.99641	
48.48579	1926.494		-34.9746	
48.53973	1924.765		-34.95371	
48.59369	1923.034		-34.93377	
48.64763	1921.295		-34.91479	
48.70158	1919.546		-34.89681	
48.75553	1917.785		-34.87981	
48.80947	1916.013		-34.86379	
48.86343	1914.228		-34.84877	
48.91737	1912.433		-34.83474	
48.97132	1910.636		-34.82175	
49.02527	1908.84		-34.80985	
49.07922	1907.046		-34.79913	
49.13317	1905.251		-34.78972	
49.18711	1903.452		-34.78174	
49.24106	1901.647		-34.77534	
49.29501	1899.835		-34.77067	
49.34896	1898.017		-34.76785	
49.40291	1896.195		-34.76697	
49.45686	1894.366		-34.7681	
49.5108	1892.524		-34.77128	
49.56475	1890.663		-34.77649	
49.6187	1888.777		-34.78368	
49.67265	1886.865		-34.79274	
49.7266	1884.928		-34.80347	
49.78054	1882.97		-34.81565	
49.83449	1881		-34.82898	
49.88844	1879.028		-34.84314	
49.94239	1877.06		-34.85779	
49.99634	1875.103		-34.87256	
50.05029	1873.157		-34.8871	
50.10423	1871.226		-34.90108	
50.15818	1869.31		-34.91418	
50.21213	1867.407		-34.92613	
50.26608	1865.515		-34.93664	
50.32003	1863.631		-34.94546	
50.37397	1861.745		-34.95236	
50.42792	1859.851		-34.95714	
50.48187	1857.941		-34.9596	
50.53582	1856.015		-34.95957	
50.58977	1854.07		-34.95695	
50.64371	1852.108		-34.95169	
50.69766	1850.138		-34.94378	
50.75161	1848.165		-34.93322	
50.80556	1846.194		-34.92009	
50.85951	1844.232		-34.90447	
50.91346	1842.282		-34.88647	
50.9674	1840.348		-34.86624	
51.02135	1838.432		-34.8439	
51.0753	1836.528		-34.81961	
51.12925	1834.625		-34.79351	
51.1832	1832.712		-34.76579	
51.23714	1830.787		-34.7366	
51.2911	1828.847		-34.70613	
51.34504	1826.889		-34.67458	
51.39899	1824.915		-34.64215	
51.45294	1822.932		-34.60904	
51.50689	1820.952		-34.57548	
51.56084	1818.984		-34.54168	
51.61478	1817.039		-34.50789	
51.66873	1815.125		-34.47432	
51.72268	1813.247		-34.44117	
51.77663	1811.407		-34.40862	
51.83058	1809.601		-34.37676	
51.88453	1807.824		-34.3457	
51.93847	1806.075		-34.31548	
51.99242	1804.35		-34.28607	
52.04637	1802.638		-34.25745	
52.10032	1800.927		-34.22954	
52.15427	1799.202		-34.20229	
52.20821	1797.458		-34.17562	
52.26216	1795.694		-34.14949	
52.31611	1793.919		-34.12386	
52.37006	1792.141		-34.09867	
52.42401	1790.368		-34.07394	
52.47795	1788.607		-34.04963	
52.5319	1786.862		-34.02575	
52.58585	1785.129		-34.00231	
52.6398	1783.398		-33.97937	
52.69375	1781.656		-33.957	
52.7477	1779.892		-33.93527	
52.80164	1778.104		-33.91424	
52.85559	1776.295		-33.89397	
52.90954	1774.47		-33.8745	
52.96349	1772.636		-33.85583	
53.01744	1770.801		-33.83796	
53.07138	1768.974		-33.82085	
53.12533	1767.156		-33.80443	
53.17928	1765.343		-33.78864	
53.23323	1763.539		-33.77343	
53.28718	1761.741		-33.75875	
53.34113	1759.941		-33.74456	
53.39507	1758.135		-33.73085	
53.44902	1756.32		-33.71764	
53.50297	1754.492		-33.70494	
53.55692	1752.652		-33.69279	
53.61087	1750.8		-33.6812	
53.66481	1748.936		-33.67019	
53.71877	1747.061		-33.65977	
53.77271	1745.172		-33.64995	
53.82666	1743.269		-33.64071	
53.88061	1741.357		-33.63201	
53.93456	1739.443		-33.62378	
53.98851	1737.535		-33.61594	
54.04245	1735.636		-33.60841	
54.0964	1733.749		-33.6011	
54.15035	1731.874		-33.59389	
54.2043	1730.003		-33.58672	
54.25825	1728.132		-33.57948	
54.31219	1726.261		-33.57209	
54.36614	1724.395		-33.56446	
54.42009	1722.533		-33.5565	
54.47404	1720.681		-33.54816	
54.52799	1718.839		-33.53937	
54.58194	1717.013		-33.5301	
54.63588	1715.205		-33.52034	
54.68983	1713.411		-33.51007	
54.74378	1711.627		-33.49932	
54.79773	1709.851		-33.48808	
54.85168	1708.076		-33.47639	
54.90562	1706.299		-33.46428	
54.95957	1704.518		-33.45178	
55.01352	1702.737		-33.43893	
55.06747	1700.959		-33.42578	
55.12142	1699.187		-33.41237	
55.17537	1697.42		-33.39874	
55.22931	1695.658		-33.38495	
55.28326	1693.901		-33.37109	
55.33721	1692.151		-33.35729	
55.39116	1690.41		-33.34371	
55.44511	1688.673		-33.33053	
55.49905	1686.939		-33.31795	
55.553	1685.208		-33.30617	
55.60695	1683.48		-33.29539	
55.6609	1681.755		-33.28579	
55.71485	1680.032		-33.27751	
55.7688	1678.308		-33.27065	
55.82274	1676.578		-33.26534	
55.87669	1674.841		-33.26165	
55.93064	1673.094		-33.25963	
55.98459	1671.331		-33.25931	
56.03854	1669.552		-33.2607	
56.09248	1667.762		-33.26379	
56.14643	1665.965		-33.26855	
