T[Â°C]	330nm [counts / mm]	S.D.
20.00055	4712.549	
20.00066	4717.782	
20.00455	4717.229	
20.00646	4723.98	
20.0191	4719.509	
20.02295	4722.547	
20.04631	4708.711	
20.05161	4709.499	
20.07956	4702.145	
20.08674	4713.53	
20.1236	4717.072	
20.1317	4706.394	
20.17327	4706.721	
20.18309	4706.008	
20.23257	4702.342	
20.24348	4700.376	
20.29906	4689.057	
20.31126	4701.343	
20.37181	4680.894	
20.3853	4704.821	
20.45066	4679.363	
20.46486	4690.583	
20.53846	4681.781	
20.55396	4668.155	
20.62824	4657.368	
20.64473	4667.514	
20.72336	4654.286	
20.74014	4658.192	
20.82503	4657.523	
20.84308	4660.1	
20.92907	4642.923	
20.94695	4651.844	
21.03354	4645.368	
21.0516	4635.648	
21.14241	4636.061	
21.1614	4644.25	
21.25179	4627.692	
21.27061	4637.167	
21.35973	4620.154	
21.37881	4623.471	
21.47209	4626.493	
21.49154	4634.651	
21.58008	4621.945	
21.59892	4623.605	
21.68896	4613.09	
21.71036	4599.576	
21.79971	4616.199	
21.81874	4611.532	
21.90639	4597.191	
21.92514	4598.288	
22.01848	4586.729	
22.03781	4590.027	
22.12883	4585.383	
22.1472	4578.082	
22.23817	4572.16	
22.25735	4569.514	
22.34678	4568.315	
22.36583	4564.826	
22.45748	4552.313	
22.47737	4550.647	
22.56398	4548.706	
22.58275	4551.325	
22.67464	4537.254	
22.69322	4541.455	
22.78398	4544.399	
22.80295	4544.458	
22.89361	4536.673	
22.9122	4524.206	
23.00435	4521.581	
23.0237	4520.654	
23.1128	4515.007	
23.13104	4522.895	
23.22252	4530.756	
23.24233	4520.988	
23.33396	4508.49	
23.3525	4510.735	
23.44092	4510.849	
23.46008	4512.403	
23.55144	4489.889	
23.57029	4506.413	
23.65968	4488.026	
23.67854	4486.044	
23.77135	4469.515	
23.79062	4486.781	
23.87955	4454.111	
23.89897	4480.625	
23.98858	4466.844	
24.00903	4471.722	
24.09936	4465.274	
24.11796	4454.685	
24.20565	4452.699	
24.22466	4441.045	
24.31653	4443.328	
24.33538	4439.969	
24.42693	4442.816	
24.44581	4434.782	
24.53632	4430.935	
24.55498	4422.33	
24.64438	4423.288	
24.664	4418.056	
24.75623	4421.275	
24.77517	4413.956	
24.86568	4415.256	
24.88519	4421.755	
24.97371	4407.614	
24.99314	4397.292	
25.08231	4392.154	
25.10318	4393.839	
25.19245	4396.284	
25.21419	4390.604	
25.30144	4387.917	
25.32062	4390.209	
25.41103	4379.061	
25.43229	4382.316	
25.52155	4378.99	
25.54065	4372.696	
25.63069	4358.436	
25.65076	4359.768	
25.73969	4353.831	
25.75972	4347.637	
25.85075	4354.947	
25.86916	4346.931	
25.95947	4330.402	
25.97832	4341.483	
26.06833	4327.02	
26.08718	4329.221	
26.17771	4328.884	
26.1981	4333.467	
26.2884	4326.236	
26.30852	4325.721	
26.39849	4323.377	
26.41775	4317.079	
26.50529	4315.183	
26.52377	4310.768	
26.61902	4301.944	
26.64095	4295.179	
26.73503	4292.607	
26.75417	4303.107	
26.84166	4295.111	
26.86101	4293.565	
26.95193	4296.131	
26.9709	4285.961	
27.06242	4279.724	
27.08145	4278.281	
27.1708	4280.021	
27.18921	4277.063	
27.27939	4269.221	
27.29872	4270.856	
27.38976	4258.482	
27.40884	4256.468	
27.49932	4253.253	
27.51794	4243.536	
27.6096	4243.812	
27.62899	4237.104	
27.72054	4241.269	
27.74002	4219.599	
27.82685	4225.417	
27.84627	4223.85	
27.93664	4215.276	
27.95567	4220.478	
28.04777	4216.703	
28.06861	4206.932	
28.15666	4207.772	
28.1756	4204.643	
28.26525	4204.907	
28.28404	4212.422	
28.37247	4202.864	
28.39244	4197.429	
28.48597	4194.539	
28.50585	4187.174	
28.59458	4190.315	
28.61298	4184.303	
28.70381	4175.87	
28.7226	4177.518	
28.8143	4169.417	
28.83461	4175.702	
28.92297	4180.741	
28.94162	4159.674	
29.03141	4156.692	
29.05072	4146.975	
29.14253	4150.776	
29.1623	4151.065	
29.25116	4168.862	
29.26954	4149.446	
29.35911	4148.997	
29.37836	4132.922	
29.47037	4125.667	
29.48961	4126.624	
29.5816	4115.229	
29.60068	4123.741	
29.68941	4117.987	
29.70797	4115.983	
29.79741	4104.864	
29.81713	4111.717	
29.90787	4109.26	
29.92694	4109.107	
30.01603	4103.342	
30.03478	4101.292	
30.12658	4096.751	
30.14586	4093.752	
30.23508	4088.791	
30.25366	4075.667	
30.34361	4082.115	
30.36262	4088.642	
30.45278	4079.935	
30.47318	4068.77	
30.56314	4079.451	
30.58211	4061.361	
30.67425	4067.023	
30.69392	4063.211	
30.78327	4065.486	
30.80267	4066.253	
30.89183	4034.439	
30.91213	4060.454	
31.00155	4050.597	
31.02071	4055.096	
31.11127	4030.668	
31.13341	4035.596	
31.2248	4030.318	
31.24597	4031.334	
31.33383	4019.394	
31.35564	4019.069	
31.44623	4019.004	
31.46513	4019.941	
31.55464	4015.359	
31.5735	4002.188	
31.66777	4014.526	
31.68688	4016.67	
31.77558	3991.308	
31.79564	3998.813	
31.88434	3992.99	
31.90359	3989.264	
31.99551	3983.968	
32.01449	3989.124	
32.10762	3977.207	
32.12785	3980.56	
32.21899	3973.834	
32.2373	3970.965	
32.32513	3970.113	
32.3456	3961.053	
32.43665	3968.823	
32.45575	3962.949	
32.54476	3967.05	
32.56546	3959.981	
32.65496	3956.859	
32.67419	3943.316	
32.76603	3951.171	
32.78769	3935.306	
32.87863	3940.592	
32.89826	3928.778	
32.98523	3925.746	
33.00542	3919.52	
33.09414	3924.402	
33.11316	3918.103	
33.20681	3915.061	
33.2277	3917.904	
33.31731	3902.004	
33.33637	3904.726	
33.42437	3908.969	
33.44599	3897.591	
33.53638	3904.48	
33.55612	3893.343	
33.6484	3891.132	
33.66931	3896.148	
33.75636	3889.482	
33.77448	3893.564	
33.8669	3884.25	
33.88683	3878.676	
33.97636	3878.97	
33.99502	3871.655	
34.08728	3872.068	
34.10628	3868.229	
34.1947	3863.705	
34.2131	3852.998	
34.3045	3863.199	
34.32498	3861.905	
34.41382	3855.076	
34.43222	3851.223	
34.5225	3851.343	
34.54362	3847.457	
34.62958	3832.75	
34.64847	3832.99	
34.74134	3833.89	
34.76024	3832.704	
34.85147	3835.564	
34.86996	3820.257	
34.96043	3816.186	
34.97921	3811.412	
35.06865	3813.843	
35.08707	3812.465	
35.17826	3797.235	
35.19747	3808.551	
35.29226	3816.569	
35.3117	3796.464	
35.40091	3792.706	
35.4196	3790.887	
35.51101	3793.077	
35.53083	3781.096	
35.62068	3788.432	
35.63969	3781.894	
35.7314	3779.369	
35.75149	3777.179	
35.83982	3774.556	
35.8596	3775.12	
35.94827	3774.248	
35.96702	3757.95	
36.05783	3765.52	
36.07766	3747.266	
36.1665	3763.221	
36.1847	3747.854	
36.27438	3743.02	
36.29284	3735.756	
36.38359	3733.634	
36.40718	3744.71	
36.49752	3733.627	
36.51626	3730.433	
36.60677	3732.41	
36.62609	3729.827	
36.71431	3727.21	
36.73353	3721.529	
36.82545	3720.316	
36.84469	3720.714	
36.93336	3710.088	
36.95242	3708.562	
37.04359	3706.21	
37.06419	3705.224	
37.15378	3709.624	
37.17274	3687.735	
37.26254	3696.106	
37.28164	3694.167	
37.37281	3700.064	
37.39525	3678.994	
37.48354	3686.333	
37.50197	3684.859	
37.59942	3686.336	
37.61891	3687.458	
37.70774	3666.729	
37.72762	3676.344	
37.81467	3662.377	
37.83448	3667.575	
37.93041	3660.642	
37.94952	3663.473	
38.04017	3657.137	
38.05923	3662.831	
38.1479	3645.496	
38.16673	3649.426	
38.25904	3645.971	
38.27817	3640.057	
38.36703	3644.228	
38.38753	3624.295	
38.47795	3630.658	
38.49677	3631.773	
38.58545	3630.881	
38.60414	3616.723	
38.6965	3616.059	
38.71557	3615.268	
38.80471	3620.908	
38.82412	3611.808	
38.91623	3610.374	
38.93479	3607.435	
39.02381	3614.125	
39.04277	3591.593	
39.13335	3596.938	
39.15204	3598.457	
39.24186	3587.979	
39.26223	3593.139	
39.35111	3577.818	
39.36977	3567.139	
39.46208	3583.658	
39.48069	3578.497	
39.57103	3572.659	
39.59033	3566.315	
39.68199	3556.715	
39.70084	3559.192	
39.79048	3557.609	
39.80954	3551.834	
39.90076	3557.32	
39.91914	3554.016	
40.00828	3548.155	
40.03065	3559.383	
40.12357	3550.811	
40.14201	3541.976	
40.23394	3541.344	
40.25286	3543.244	
40.34438	3529.782	
40.36687	3529.477	
40.4579	3526.932	
40.47673	3522.613	
40.57109	3520.518	
40.59042	3511.154	
40.6813	3524.724	
40.70275	3510.095	
40.79381	3518.125	
40.81307	3506.036	
40.90233	3501.399	
40.92111	3503.427	
41.0126	3496.687	
41.03408	3496.157	
41.12656	3490.687	
41.14527	3497.367	
41.23299	3485.01	
41.25198	3484.995	
41.34364	3482.48	
41.36312	3479.611	
41.45362	3480.608	
41.47252	3471.143	
41.56336	3466.252	
41.58497	3464.082	
41.67582	3471.624	
41.69666	3448.293	
41.78526	3463.137	
41.80439	3452.375	
41.89396	3459.436	
41.91222	3455.458	
42.00537	3450.811	
42.02454	3443.885	
42.11423	3451.344	
42.1338	3435.224	
42.22375	3439.927	
42.24427	3426.461	
42.3326	3432.905	
42.35145	3422.732	
42.4404	3425.054	
42.45934	3415.259	
42.55049	3426.271	
42.56995	3411.776	
42.66219	3413.442	
42.68082	3418.172	
42.77062	3415.676	
42.79003	3403.927	
42.87988	3399.552	
42.89896	3394.026	
42.98819	3395.213	
43.00752	3398.997	
43.09684	3396.044	
43.11705	3376.944	
43.20552	3387.136	
43.22632	3375.752	
43.31775	3375.827	
43.33728	3378.509	
43.42828	3361.679	
43.44628	3374.178	
43.53445	3369.653	
43.55388	3359.16	
43.64554	3365.225	
43.66462	3347.711	
43.75649	3352.375	
43.77518	3359.861	
43.86376	3357.652	
43.88388	3354.279	
43.97348	3348.383	
43.99457	3341.658	
44.08271	3344.563	
44.10128	3339.662	
44.19282	3343.834	
44.21149	3341.406	
44.30206	3327.282	
44.32231	3326.226	
44.41202	3331.299	
44.43113	3320.938	
44.52159	3324.592	
44.54008	3311.883	
44.63038	3317.724	
44.64955	3320.382	
44.73839	3306.271	
44.75753	3315.827	
44.84762	3307.278	
44.86823	3304.394	
44.95807	3305.718	
44.97685	3293.604	
45.06732	3306.3	
45.08581	3286.976	
45.17701	3279.922	
45.1955	3290.606	
45.28782	3289.375	
45.30825	3275.471	
45.39727	3280.448	
45.41752	3270.09	
45.50566	3269.821	
45.52491	3268.875	
45.61513	3265.289	
45.63387	3259.067	
45.72434	3260.162	
45.74363	3264.769	
45.83449	3260.679	
45.85349	3257.265	
45.94384	3247.019	
45.9626	3248.351	
46.05293	3239.68	
46.07188	3246.619	
46.1623	3239.483	
46.18097	3240.264	
46.27136	3245.795	
46.28966	3220.556	
46.37959	3235.058	
46.3987	3228.77	
46.48896	3221.409	
46.50779	3219.357	
46.59818	3203.006	
46.61752	3210.485	
46.71077	3215.267	
46.72952	3210.26	
46.81829	3203.575	
46.83807	3197.202	
46.92813	3201.161	
46.94749	3200.602	
47.03817	3195.089	
47.05692	3193.207	
47.1474	3196.024	
47.16685	3188.037	
47.2551	3198.267	
47.27566	3182.896	
47.36557	3183.403	
47.38526	3174.929	
47.47487	3173.37	
47.49421	3175.031	
47.58366	3174.563	
47.60312	3175.153	
47.69553	3157.413	
47.71452	3157.249	
47.80313	3168.707	
47.82394	3154.401	
47.91313	3159.498	
47.93341	3150.901	
48.02213	3153.892	
48.04142	3147.686	
48.1315	3143.471	
48.15108	3147.321	
48.24168	3141.124	
48.2607	3130.207	
48.35064	3140.977	
48.37011	3131.377	
48.45908	3131.316	
48.47803	3125.875	
48.56918	3131.403	
48.58902	3129.795	
48.6791	3118.612	
48.69816	3111.102	
48.78642	3123.102	
48.80554	3109.961	
48.8973	3105.2	
48.91624	3099.719	
49.00754	3104.031	
49.02647	3095.448	
49.11673	3103.08	
49.13616	3099.67	
49.22689	3094.885	
49.24588	3092.591	
49.33671	3091.571	
49.35617	3083.157	
49.44485	3087.396	
49.46405	3081.452	
49.55402	3086.112	
49.57278	3075.753	
49.66332	3075.576	
49.6844	3063.681	
49.77425	3072.737	
49.79343	3062.682	
49.88449	3063.355	
49.90302	3056.846	
49.99328	3067.682	
50.01223	3040.532	
50.10403	3056.904	
50.12281	3051.082	
50.21139	3050.819	
50.23058	3044.941	
50.32285	3039.708	
50.3418	3042.842	
50.43095	3044.148	
50.44981	3034.531	
50.5405	3035.357	
50.55933	3024.777	
50.65107	3022.772	
50.67081	3022.064	
50.75948	3013.585	
50.7785	3017.338	
50.87108	3016.178	
50.89028	3022.293	
50.98009	3010.614	
50.99877	3003.778	
51.08783	3008.435	
51.10798	3003.115	
51.19919	3009.12	
51.21804	2998.904	
51.30955	2985.59	
51.32817	2998.611	
51.41823	2995.012	
51.43742	2984.957	
51.52574	2987.711	
51.544	2978.83	
51.63681	2975.763	
51.65605	2983.082	
51.74698	2984.853	
51.76588	2970.124	
51.85692	2975.135	
51.8767	2976.233	
51.96634	2974.079	
51.98429	2960.87	
52.07418	2958.49	
52.09338	2964.886	
52.18322	2954.174	
52.20226	2954.879	
52.29854	2958.287	
52.3174	2950.666	
52.40983	2945.985	
52.42853	2941.667	
52.51752	2949.108	
52.53974	2937.31	
52.63435	2939.37	
52.65322	2933.69	
52.74259	2932.457	
52.76376	2922.985	
52.85442	2932.548	
52.87356	2915.953	
52.96448	2924.848	
52.98319	2915.256	
53.07477	2919.118	
53.09371	2919.941	
53.18723	2923.197	
53.20599	2910.336	
53.30059	2911.434	
53.32026	2908.899	
53.40944	2907.341	
53.42847	2898.036	
53.5196	2895.388	
53.53935	2890.722	
53.62941	2886.643	
53.64785	2889.889	
53.74229	2890.285	
53.76162	2889.694	
53.85695	2879.471	
53.87704	2881.345	
53.96428	2883.774	
53.98279	2867.959	
54.07571	2872.419	
54.09878	2859.647	
54.18937	2863.809	
54.21124	2863.16	
54.30245	2851.06	
54.32353	2860.257	
54.41159	2859.644	
54.43499	2852.653	
54.52512	2859.586	
54.5444	2843.893	
54.63441	2849.85	
54.65354	2847.376	
54.74391	2836.34	
54.76442	2848.458	
54.85346	2832.89	
54.8724	2833.785	
54.96378	2831.72	
54.98233	2833.379	
55.07186	2830.452	
55.09238	2824.707	
55.18204	2839.208	
55.20246	2818.877	
55.29302	2833.857	
55.31308	2812.672	
55.39946	2824.764	
55.41832	2818.601	
55.51054	2817.848	
55.53001	2814.236	
55.62032	2800.983	
55.63946	2802.914	
55.72999	2803.549	
55.7522	2800.75	
55.84264	2801.832	
55.86455	2789.277	
55.95462	2796.699	
55.97404	2782.138	
56.07054	2790.356	
56.08909	2775.23	
56.18164	2775.732	
56.20126	2772.369	
56.29206	2779.165	
56.31042	2772.412	
56.40364	2768.02	
56.42282	2770.292	
56.51966	2768.911	
56.53857	2756.114	
56.62815	2768.764	
56.64958	2758.619	
56.7393	2757.352	
56.75984	2755.108	
56.84985	2750.785	
56.86928	2745.052	
56.96185	2750.591	
56.98008	2745.85	
57.07113	2739.759	
57.08954	2745.785	
57.18032	2734.958	
57.20252	2737.214	
57.29251	2733.346	
57.31436	2728.209	
57.40641	2733.726	
57.42588	2732.921	
57.51413	2728.582	
57.53292	2713.244	
57.62495	2735.025	
57.64376	2720.674	
57.73399	2719.966	
57.75275	2717.088	
57.84367	2708.585	
57.86518	2694.67	
57.95721	2706.761	
57.97587	2695.198	
58.06927	2694.039	
58.08873	2700.758	
58.18188	2687.677	
58.20132	2696.488	
58.28999	2687.041	
58.31061	2682.95	
58.39988	2696.223	
58.41884	2689.466	
58.50788	2692.619	
58.52704	2685.123	
58.6184	2677.069	
58.63778	2670.932	
58.72974	2679.368	
58.74859	2668.722	
58.83723	2670.065	
58.85621	2666.559	
58.9466	2671.446	
58.96611	2660.915	
59.05788	2668.403	
59.07648	2664.07	
59.16531	2664.918	
59.18421	2659.485	
59.2751	2657.284	
59.29472	2650.819	
59.38532	2665.837	
59.40375	2645.365	
59.49133	2649.763	
59.51342	2641.079	
59.60607	2634.111	
59.62487	2636.313	
59.71308	2632.894	
59.732	2638.708	
59.82326	2629.33	
59.84264	2626.936	
59.93358	2630.672	
59.95249	2621.576	
60.04126	2624.68	
60.06105	2614.701	
60.15015	2619.577	
60.16952	2612.916	
60.26123	2618.803	
60.2801	2614.746	
60.36994	2611.693	
60.38929	2609.474	
60.47972	2613.601	
60.49918	2598.667	
60.58973	2611.192	
60.60816	2601.479	
60.70038	2605.379	
60.71964	2601.183	
60.80946	2586.001	
60.82864	2585.914	
60.91837	2588.357	
60.93748	2579.754	
61.02704	2582.167	
61.04618	2576.109	
61.13865	2572.906	
61.15771	2572.797	
61.24637	2579.187	
61.26558	2565.406	
61.35737	2576.712	
61.37685	2574.746	
61.4642	2570.407	
61.48419	2559.729	
61.57819	2560.46	
61.59673	2561.507	
61.68587	2560.426	
61.70516	2560.132	
61.79353	2557.629	
61.81252	2545.167	
61.90694	2547.454	
61.92603	2543.39	
62.01488	2547.757	
62.03476	2541.444	
62.12341	2544.883	
62.14206	2535.919	
62.23271	2530.525	
62.25126	2536.358	
62.348	2537.355	
62.36746	2528.48	
62.4563	2527.836	
62.47528	2532	
62.56466	2527.021	
62.58363	2527.35	
62.67522	2523.429	
62.69461	2516.026	
62.78576	2518.36	
62.80496	2513.398	
62.89462	2524.238	
62.91405	2508.888	
63.00466	2524.779	
63.02461	2508.625	
63.11462	2510.91	
63.13356	2503.766	
63.22339	2502.67	
63.24237	2509.451	
63.33575	2508.57	
63.35535	2493.734	
63.44659	2498.04	
63.46648	2491.505	
63.5553	2491.941	
63.57429	2485.1	
63.66504	2491.163	
63.68499	2480.263	
63.7762	2487.722	
63.79549	2482.389	
63.88585	2486.706	
63.90556	2474.729	
63.99305	2479.994	
64.01191	2476.49	
64.1034	2485.935	
64.12514	2468.218	
64.21766	2477.411	
64.23675	2467.434	
64.32593	2473.186	
64.34498	2457.588	
64.43591	2466.15	
64.45472	2465.046	
64.54434	2466.132	
64.56319	2466.06	
64.65439	2466.314	
64.67662	2460.615	
64.76868	2461.053	
64.78709	2450.192	
64.88007	2451.709	
64.90062	2450.016	
64.99076	2452.55	
65.01205	2445.071	
65.10432	2461.136	
65.12309	2445.995	
65.21427	2458.261	
65.2363	2448.028	
65.32816	2442.204	
65.34879	2436.504	
65.43773	2453.27	
65.45608	2439.201	
65.54562	2440.643	
65.5681	2433.752	
65.66163	2449.714	
65.68279	2435.885	
65.77137	2440.628	
65.79032	2443.792	
65.88533	2440.662	
65.90474	2436.15	
65.99572	2444.569	
66.01447	2436.955	
66.11037	2445.021	
66.12937	2447.309	
66.21807	2456.24	
66.23778	2446.21	
66.32835	2448.253	
66.3476	2446.494	
66.43841	2448.472	
66.45717	2445.858	
66.54604	2457.484	
66.56548	2449.33	
66.65707	2455.895	
66.67742	2449.819	
66.76667	2468.227	
66.78844	2451.144	
66.87788	2469.091	
66.89694	2458.675	
66.99306	2480.328	
67.01794	2467.041	
67.10581	2472.157	
67.12518	2466.99	
67.21937	2481.065	
67.23907	2483.187	
67.33187	2479.736	
67.35118	2481.784	
67.44386	2493.769	
67.46651	2489.645	
67.55594	2504.572	
67.57425	2504.497	
67.66845	2518.059	
67.68842	2510.432	
67.77966	2520.816	
67.80143	2521.649	
67.89098	2536.785	
67.91	2535.066	
68.00576	2551.279	
68.02547	2542.564	
68.11251	2562.108	
68.13463	2555.451	
68.22819	2582.512	
68.24728	2570.595	
68.33669	2592.631	
68.35592	2579.55	
68.45096	2608.679	
68.46963	2605.731	
68.56003	2629.084	
68.58197	2630.774	
68.67435	2645.925	
68.6944	2641.069	
68.78573	2672.142	
68.80447	2669.154	
68.89967	2691.753	
68.92062	2692.095	
69.0089	2711.292	
69.02769	2714.024	
69.11798	2745.894	
69.13948	2738.873	
69.23074	2772.458	
69.24918	2761.644	
69.34288	2803.494	
69.36488	2794.47	
69.45451	2840.469	
69.4739	2840.899	
69.56226	2863.867	
69.58124	2859.783	
69.67313	2897.63	
69.69234	2893.749	
69.78182	2938.89	
69.80241	2935.03	
69.89284	2967.093	
69.91261	2964.467	
70.00217	3010.98	
70.02246	3009.946	
70.11248	3037.692	
70.13284	3055.49	
70.22143	3094.572	
70.24402	3095.668	
70.33476	3146.55	
70.356	3146.572	
70.44721	3196.459	
70.466	3195.3	
70.55738	3238.65	
70.57912	3242.281	
70.66943	3289.506	
70.69091	3294.7	
70.78377	3349.407	
70.80589	3358.118	
70.89736	3411.262	
70.91624	3408.462	
71.01128	3474.544	
71.03194	3472.58	
71.119	3533.838	
71.13945	3524.075	
71.23279	3607.915	
71.2555	3604.653	
71.34711	3655.319	
71.366	3664.619	
71.45995	3730.009	
71.47999	3748.434	
71.56767	3790.154	
71.58909	3793.659	
71.68294	3853.92	
71.70342	3866.628	
71.79253	3930.504	
71.81134	3950.29	
71.90462	3999.863	
71.92599	4006.229	
72.01746	4082.79	
72.03686	4079.743	
72.12855	4158.428	
72.15065	4166.159	
72.24152	4237.581	
72.26012	4243.496	
72.34861	4322.265	
72.37093	4316.682	
72.46351	4405.751	
72.48264	4394.938	
72.5733	4466.615	
72.59541	4464.266	
72.68542	4529.232	
72.70415	4524.105	
72.79649	4586.116	
72.81931	4589.857	
72.90919	4651.434	
72.92773	4653.365	
73.01809	4710.207	
73.03992	4703.374	
73.13135	4760.061	
73.1502	4745.339	
73.24321	4808.556	
73.26512	4794.586	
73.35415	4848.07	
73.37299	4836.384	
73.46368	4883.605	
73.48609	4876.165	
73.57706	4894.003	
73.59525	4892.044	
73.6867	4952.968	
73.70592	4926.594	
73.79921	4982.02	
73.8203	4952.784	
73.9107	4994.787	
73.93012	4977.773	
74.0191	5009.15	
74.04172	4991.961	
74.13329	5023.563	
74.15196	5004.008	
74.24229	5055.417	
74.26143	5019.626	
74.35468	5056.938	
74.3748	5044.594	
74.46506	5058.779	
74.48389	5053.325	
74.57503	5077.68	
74.59341	5063.901	
74.68665	5098.079	
74.7057	5060.837	
74.79702	5111.934	
74.81609	5093.219	
74.91001	5125.309	
74.93274	5099.002	
75.02281	5123.977	
75.04208	5107.63	
75.13326	5143.568	
75.1526	5128.664	
75.24204	5157.328	
75.2642	5128.92	
75.35416	5151.363	
75.37312	5142.564	
75.4659	5167.202	
75.48824	5135.692	
75.57886	5180.92	
75.59775	5148.152	
75.68806	5205.622	
75.70749	5173.076	
75.7999	5198.515	
75.8227	5163.842	
75.91629	5201.784	
75.93518	5187.609	
76.02492	5210.415	
76.04411	5175.648	
76.13592	5216.076	
76.15793	5197.314	
76.25121	5211.096	
76.27075	5190.853	
76.36131	5221.954	
76.37962	5214.588	
76.47171	5225.225	
76.4914	5204.893	
76.58363	5234.029	
76.60519	5214.429	
76.69685	5239.115	
76.71592	5222.477	
76.80777	5240.694	
76.82649	5207.538	
76.91801	5249.054	
76.94025	5215.416	
77.0301	5234.189	
77.04945	5218.375	
77.13937	5252.23	
77.1577	5222.837	
77.24948	5260.786	
77.26889	5228.714	
77.35969	5247.021	
77.37849	5237.902	
77.47131	5272.961	
77.49095	5252.839	
77.5819	5258.6	
77.60075	5241.563	
77.69477	5270.513	
77.71591	5233.77	
77.80702	5289.239	
