T[Â°C]	350nm [counts / mm]	S.D.
20.00003	7035.548	
20.00005	7034.456	
20.004	7046.405	
20.00468	7043.808	
20.02037	7042.283	
20.02179	7029.442	
20.04755	7022.781	
20.04933	7034.788	
20.08297	7028.791	
20.08532	7018.637	
20.12623	7018.285	
20.12904	7014.569	
20.17654	7007.997	
20.17965	7025.938	
20.23612	7016.662	
20.23995	7018.747	
20.30133	7005.785	
20.30706	7020.5	
20.37634	6996.458	
20.38083	7008.496	
20.45683	6988.079	
20.46194	6980.359	
20.54085	6985.275	
20.54562	6979.934	
20.63408	6972.45	
20.63968	6972.314	
20.73031	6975.552	
20.73649	6951.114	
20.8297	6955.763	
20.83546	6965.816	
20.93371	6948.532	
20.93994	6940.809	
21.04041	6923.791	
21.04656	6939.099	
21.14886	6927.917	
21.15593	6929.322	
21.25824	6908.845	
21.26446	6925.792	
21.36751	6893.719	
21.37419	6882.563	
21.47972	6891.756	
21.48611	6877.372	
21.58937	6875.486	
21.59553	6880.224	
21.69693	6865.9	
21.70359	6869.903	
21.80617	6853.318	
21.81243	6852.229	
21.91644	6868.049	
21.92247	6854.015	
22.02648	6825.771	
22.03266	6840.842	
22.13367	6805.176	
22.14287	6821.666	
22.24364	6807.644	
22.25027	6801.52	
22.35201	6807.96	
22.35889	6805.41	
22.46414	6787.463	
22.47025	6785.009	
22.5732	6784.348	
22.5799	6783.869	
22.68201	6769.764	
22.68856	6764.665	
22.7928	6750.966	
22.79919	6741.344	
22.90016	6768.81	
22.90667	6764.093	
23.01199	6743.203	
23.01962	6742.614	
23.12118	6719.081	
23.12744	6732.52	
23.22864	6711.642	
23.23488	6703.348	
23.33878	6695.223	
23.34507	6697.913	
23.44869	6678.785	
23.45508	6683.386	
23.55984	6669.341	
23.56631	6668.594	
23.66667	6668.239	
23.67299	6670.909	
23.77817	6665.294	
23.78418	6660.949	
23.88548	6665.654	
23.89172	6662.207	
23.99437	6645.087	
24.00084	6637.686	
24.10562	6627.498	
24.11189	6629.207	
24.2135	6612.839	
24.21978	6615.075	
24.32442	6622.536	
24.33047	6607.534	
24.43484	6588.349	
24.44095	6598.263	
24.54363	6596.925	
24.55003	6590.397	
24.65316	6595.151	
24.65981	6586.59	
24.76208	6583.091	
24.76927	6567.088	
24.87235	6550.306	
24.87854	6552.665	
24.9819	6554.603	
24.98841	6549.249	
25.09066	6545.99	
25.09709	6525.017	
25.20212	6518.646	
25.20812	6525.224	
25.30852	6518.306	
25.31626	6524.11	
25.41969	6503.361	
25.42656	6505.639	
25.53126	6480.88	
25.53784	6485.138	
25.63892	6483.023	
25.6453	6485.876	
25.7483	6485.413	
25.75466	6465.493	
25.85787	6454.132	
25.8648	6463.965	
25.96646	6455.489	
25.97292	6460.421	
26.07674	6442.516	
26.08332	6436.719	
26.18502	6430.769	
26.19137	6423.858	
26.29503	6426.543	
26.3018	6415.832	
26.40487	6407.21	
26.41097	6405.969	
26.51443	6390.421	
26.52096	6392.188	
26.62528	6391.021	
26.63132	6379.419	
26.73282	6380.533	
26.73875	6369.689	
26.84093	6373.946	
26.84766	6375.755	
26.95456	6355.527	
26.96124	6354.715	
27.06176	6341.471	
27.06791	6334.513	
27.17027	6333.007	
27.17656	6331.498	
27.28301	6331.273	
27.28935	6316.531	
27.38884	6310.188	
27.39886	6308.519	
27.50023	6312.185	
27.50659	6305.89	
27.60973	6305.07	
27.61613	6291.925	
27.71937	6281.5	
27.72601	6286.351	
27.82762	6281.397	
27.83398	6269.238	
27.93874	6256.616	
27.94527	6254.944	
28.04733	6264.69	
28.05381	6250.18	
28.1603	6250.241	
28.16676	6239.522	
28.26793	6237.933	
28.27401	6237.42	
28.37562	6235.314	
28.38224	6230.572	
28.48677	6221.127	
28.49313	6214.14	
28.59532	6194.744	
28.60129	6199.889	
28.7046	6193.558	
28.71091	6195.417	
28.81463	6182.716	
28.82064	6172.879	
28.92276	6168.043	
28.9289	6160.013	
29.0324	6168.314	
29.03907	6146.774	
29.14338	6163.089	
29.14977	6150.739	
29.25159	6146.153	
29.25797	6134.512	
29.36038	6127.774	
29.36677	6117.738	
29.47071	6130.014	
29.47718	6118.329	
29.58047	6114.95	
29.58685	6111.089	
29.68974	6092.991	
29.696	6097.474	
29.79751	6098.006	
29.80364	6082.597	
29.9073	6073.581	
29.9136	6078.988	
30.01776	6058.575	
30.02401	6075.66	
30.1261	6061.03	
30.13236	6063.819	
30.2367	6057.856	
30.24303	6050.655	
30.34521	6035.124	
30.3515	6037.651	
30.45425	6006.971	
30.46066	6034.732	
30.5642	6014.158	
30.57075	6014.483	
30.67436	6002.162	
30.68072	5988.82	
30.78382	5985.47	
30.79015	5985.587	
30.89298	5969.652	
30.89932	5983.044	
31.00379	5982.105	
31.01117	5955.19	
31.1116	5972.311	
31.11804	5963.874	
31.22139	5958.758	
31.22768	5966.092	
31.3307	5942.929	
31.33674	5942.776	
31.44003	5937.021	
31.44604	5938.677	
31.54882	5928.762	
31.5548	5924.174	
31.65959	5921.516	
31.66574	5921.955	
31.76867	5893.638	
31.77526	5919.13	
31.87868	5889.158	
31.88537	5889.906	
31.98867	5904.372	
31.99493	5884.273	
32.096	5890.854	
32.10339	5888.88	
32.2074	5879.677	
32.2136	5872.662	
32.31638	5869.779	
32.32262	5871.755	
32.42583	5846.341	
32.43296	5839.831	
32.53462	5831.668	
32.54097	5837.239	
32.64441	5815.917	
32.65062	5823.438	
32.75348	5810.509	
32.75979	5807	
32.86374	5799.806	
32.87132	5813.934	
32.97409	5804.789	
32.98144	5780.387	
33.08219	5785.35	
33.08839	5785.395	
33.19205	5769.589	
33.19856	5780.017	
33.30283	5761.176	
33.30911	5759.527	
33.41051	5758.179	
33.41654	5769.5	
33.52011	5748.035	
33.52658	5747.43	
33.63062	5754.381	
33.63696	5737.376	
33.73949	5725.217	
33.74662	5726.218	
33.8475	5715.104	
33.85366	5717.299	
33.95907	5705.741	
33.96838	5708.346	
34.06877	5693.585	
34.0752	5689.787	
34.17587	5699.966	
34.18246	5679.573	
34.28617	5673.546	
34.29338	5679.938	
34.39812	5655.694	
34.40431	5669.538	
34.50542	5647.86	
34.51175	5649.064	
34.6143	5644.28	
34.62068	5637.074	
34.72207	5637.448	
34.73182	5646.655	
34.83508	5634.299	
34.8415	5629.38	
34.94319	5601.056	
34.94955	5616.552	
35.05122	5598.864	
35.05742	5613.833	
35.16098	5605.263	
35.16769	5605.847	
35.27102	5596.385	
35.27724	5592.566	
35.37993	5577.688	
35.38635	5581.833	
35.49105	5571.51	
35.49761	5575.806	
35.60037	5584.257	
35.60635	5569.368	
35.70908	5560.569	
35.71541	5560.908	
35.8178	5545.534	
35.82409	5537.061	
35.92929	5534.516	
35.9357	5544.583	
36.03616	5523.228	
36.04362	5513.351	
36.14631	5514.391	
36.15288	5508.899	
36.25786	5495.564	
36.26421	5518.98	
36.36433	5486.612	
36.37061	5500.882	
36.47548	5493.507	
36.48178	5480.191	
36.58529	5478.31	
36.59162	5482.251	
36.69473	5480.593	
36.70096	5461.876	
36.80389	5464.38	
36.80997	5449.152	
36.91332	5446.803	
36.91962	5437.769	
37.02293	5442.531	
37.02888	5419.869	
37.13214	5425.059	
37.13839	5424.021	
37.24315	5412.292	
37.25023	5413.105	
37.35056	5418.852	
37.35706	5407.48	
37.46011	5402.234	
37.46641	5392.428	
37.56945	5395.823	
37.5755	5388.433	
37.68026	5378.698	
37.68929	5366.353	
37.78981	5361.896	
37.79642	5373.897	
37.89968	5350.399	
37.90607	5354.128	
38.00802	5349.291	
38.01459	5349.172	
38.11725	5347.422	
38.12382	5352.425	
38.22653	5329.752	
38.2332	5342.799	
38.33628	5318.129	
38.34254	5324.319	
38.44506	5312.135	
38.45163	5306.353	
38.55492	5305.349	
38.56153	5306.247	
38.66416	5296.361	
38.67102	5298.577	
38.77383	5292.051	
38.78092	5287.191	
38.88255	5278.42	
38.88892	5276.791	
38.9928	5264.479	
38.99905	5261.278	
39.10291	5256.612	
39.11011	5260.282	
39.21029	5256.903	
39.2165	5252.797	
39.32024	5243.95	
39.32661	5250.813	
39.43149	5231.263	
39.43874	5239.846	
39.54144	5216.735	
39.54815	5236.661	
39.64851	5208.413	
39.65469	5213.796	
39.76163	5197.74	
39.76791	5209.449	
39.86915	5197.636	
39.87576	5209.96	
39.97732	5177.98	
39.98363	5181.218	
40.0924	5181.28	
40.10002	5164.138	
40.19985	5163.068	
40.20612	5156.661	
40.30957	5155.454	
40.31589	5153.539	
40.42044	5141.54	
40.42704	5129.188	
40.52768	5130.489	
40.53421	5131.945	
40.63859	5140.179	
40.64489	5118.019	
40.74914	5130.033	
40.7554	5111.813	
40.85867	5105.942	
40.86507	5108.479	
40.96765	5099.392	
40.97513	5093.222	
41.07904	5077.566	
41.08538	5090.36	
41.18441	5090.257	
41.19358	5071.793	
41.29539	5069.325	
41.3019	5061.018	
41.40492	5046.082	
41.41144	5042.269	
41.5134	5041.859	
41.51964	5036.866	
41.62307	5025.215	
41.63098	5029.516	
41.73261	5035.294	
41.73928	5027.315	
41.84422	5018.371	
41.85048	5004.46	
41.95166	5019.349	
41.95917	5004.294	
42.06225	5009.848	
42.06834	5004.831	
42.17083	4987.787	
42.1788	5000.023	
42.28197	4998.413	
42.28815	4980.008	
42.3915	4966.327	
42.39767	4978.275	
42.5006	4967.947	
42.50703	4963.356	
42.6108	4955.029	
42.61732	4951.329	
42.71863	4952.034	
42.72535	4955.115	
42.82837	4935.856	
42.83735	4945.827	
42.93842	4929.263	
42.94482	4924.513	
43.04765	4935.289	
43.05452	4922.077	
43.1563	4924.56	
43.16262	4915.792	
43.26663	4900.047	
43.27266	4906.504	
43.37576	4896.574	
43.38206	4887.614	
43.48474	4891.708	
43.49099	4886.23	
43.59531	4872.575	
43.60169	4860.565	
43.70507	4872.101	
43.71133	4870.484	
43.81347	4855.4	
43.81972	4851.354	
43.92226	4850.716	
43.92855	4838.812	
44.03341	4848.21	
44.04005	4832.46	
44.14193	4829.083	
44.14823	4827.458	
44.24972	4816.298	
44.2562	4832.584	
44.36055	4809.063	
44.36707	4815.773	
44.47048	4802.189	
44.47681	4805.347	
44.58171	4801.859	
44.58762	4792.099	
44.6874	4782.125	
44.69407	4787.21	
44.79944	4765.805	
44.80602	4778.553	
44.90934	4761.62	
44.91576	4763.643	
45.01589	4756.946	
45.02238	4756.976	
45.12463	4747.225	
45.13092	4752.522	
45.23452	4736.948	
45.24078	4729.033	
45.3449	4731.396	
45.35126	4732.122	
45.45439	4718.905	
45.46096	4726.17	
45.56369	4713.821	
45.57024	4708.264	
45.67335	4707.449	
45.67966	4695.672	
45.78186	4690.812	
45.78962	4684.765	
45.8935	4674.221	
45.90001	4682.574	
46.00345	4672.147	
46.01001	4681.964	
46.11305	4666.827	
46.11913	4667.596	
46.22026	4657.741	
46.22659	4655.688	
46.32958	4656.577	
46.33587	4645.082	
46.43975	4652.987	
46.44616	4637.831	
46.54897	4639.38	
46.55547	4630.938	
46.65858	4627.916	
46.66492	4622.695	
46.76935	4622.632	
46.77975	4611.116	
46.87794	4613.385	
46.88417	4613.363	
46.98855	4606.737	
46.9952	4608.9	
47.09726	4590.771	
47.10364	4595.607	
47.2074	4580.844	
47.21334	4576.891	
47.31519	4574.226	
47.32286	4570.664	
47.42725	4557.05	
47.43327	4559.3	
47.53456	4553.201	
47.54096	4557.245	
47.64439	4549.719	
47.6509	4539.523	
47.75275	4534.246	
47.76073	4534.447	
47.86414	4532.069	
47.87048	4521.847	
47.97493	4518.685	
47.98192	4512.374	
48.08426	4508.288	
48.09035	4516.382	
48.19222	4512.854	
48.19862	4504.64	
48.3003	4494.973	
48.30871	4485.961	
48.41327	4502.438	
48.41959	4488.723	
48.52159	4474.122	
48.52765	4472.748	
48.63372	4453.851	
48.64012	4467.318	
48.74468	4457.927	
48.75306	4453.419	
48.8529	4456.259	
48.85944	4448.055	
48.96299	4449.327	
48.96929	4439.777	
49.07244	4435.292	
49.07859	4429.2	
49.18187	4423.488	
49.18855	4423.175	
49.29147	4425.352	
49.29961	4411.35	
49.40025	4406.011	
49.40665	4401.704	
49.5091	4405.461	
49.51757	4395.476	
49.62088	4398.828	
49.62701	4391.467	
49.72922	4392.541	
49.73536	4382.952	
49.83913	4375.345	
49.84734	4364.212	
49.94706	4370.18	
49.95317	4355.745	
50.05752	4357.116	
50.06383	4349.988	
50.16645	4351.314	
50.17295	4348.696	
50.27466	4345.047	
50.28094	4346.184	
50.38715	4324.899	
50.39309	4330.929	
50.49408	4322.22	
50.50037	4320.168	
50.60538	4324.896	
50.61184	4316.82	
50.71563	4315.298	
50.72212	4307.577	
50.82669	4294.313	
50.83485	4299.143	
50.93757	4301.495	
50.94391	4306.002	
51.04714	4284.533	
51.05357	4291.259	
51.15479	4287.832	
51.16123	4280.094	
51.26421	4265.066	
51.27043	4268.073	
51.37324	4252.242	
51.38157	4276.421	
51.48306	4256.393	
51.48965	4256.044	
51.59185	4251.806	
51.59839	4242.342	
51.7037	4225.732	
51.71002	4226.322	
51.81058	4219.98	
51.81712	4214.341	
51.92126	4221.62	
51.92751	4210.146	
52.03143	4206.927	
52.03777	4209.536	
52.14127	4211.356	
52.14751	4196.803	
52.24916	4186.386	
52.25518	4189.246	
52.35994	4191.261	
52.36604	4186.789	
52.46693	4168.551	
52.47318	4167.26	
52.57792	4153.808	
52.58419	4167.887	
52.68647	4154.777	
52.69258	4161.56	
52.7946	4146.082	
52.80097	4148.429	
52.90661	4137.507	
52.91326	4131.99	
53.01524	4137.84	
53.02167	4132.244	
53.12557	4116.822	
53.13176	4130.902	
53.23302	4107.601	
53.23943	4105.062	
53.34281	4114.115	
53.34926	4097.994	
53.45385	4096.887	
53.46015	4097.19	
53.56318	4094.728	
53.56996	4094.863	
53.67037	4099.041	
53.67709	4072.344	
53.78168	4076.519	
53.78787	4078.046	
53.89272	4070.239	
53.89904	4060.68	
54.00084	4064.096	
54.00776	4055.636	
54.11082	4052.883	
54.117	4053.119	
54.22069	4049.746	
54.227	4050.616	
54.33064	4048.536	
54.33745	4047.565	
54.43822	4031.135	
54.44483	4036.003	
54.54969	4023.038	
54.55573	4021.799	
54.65767	4006.664	
54.664	4016.876	
54.76778	4007	
54.77406	4000.529	
54.87624	4007.935	
54.88248	3997.396	
54.98771	3992.053	
54.9943	3999.338	
55.09691	3984.279	
55.10389	3978.503	
55.20691	3969.257	
55.2134	3973.062	
55.31723	3964.831	
55.32326	3968.617	
55.42341	3961.427	
55.42973	3954.82	
55.53333	3960.33	
55.53957	3954.108	
55.64462	3948.554	
55.65068	3941.918	
55.75555	3939.554	
55.76196	3932.89	
55.86357	3927.159	
55.86977	3924.723	
55.97259	3914.353	
55.97897	3907.158	
56.08209	3912.728	
56.08864	3909.941	
56.19131	3913.331	
56.19763	3908.82	
56.30227	3898.678	
56.30952	3889.47	
56.41049	3888.58	
56.41701	3893.961	
56.52205	3882.844	
56.52905	3870.942	
56.63017	3877.646	
56.63633	3875.762	
56.74083	3861.144	
56.7471	3859.277	
56.84967	3857.15	
56.85639	3861.096	
56.96042	3861.361	
56.96668	3846.835	
57.07026	3839.323	
57.07652	3841.14	
57.17779	3825.73	
57.18425	3833.868	
57.28976	3815.745	
57.29582	3822.889	
57.39839	3806.06	
57.40504	3817.747	
57.50676	3819.759	
57.51334	3802.517	
57.61614	3801.901	
57.62248	3805.859	
57.72828	3795.404	
57.73463	3799.678	
57.83696	3791.511	
57.84298	3786.463	
57.94825	3783.051	
57.95479	3786.519	
58.0622	3776.874	
58.06886	3766.549	
58.1724	3779.365	
58.17862	3768.727	
58.28822	3757.278	
58.29455	3760.263	
58.39402	3745.482	
58.40032	3748.099	
58.50897	3739.055	
58.51518	3741.882	
58.61877	3729.826	
58.62483	3736.642	
58.72788	3734.383	
58.73414	3736.926	
58.83638	3725.668	
58.84262	3726.425	
58.94621	3722.688	
58.95245	3716.434	
59.05692	3712.403	
59.06348	3715.438	
59.1644	3692.257	
59.17082	3688.278	
59.27685	3692.331	
59.28448	3686.613	
59.38477	3687.339	
59.39356	3676.736	
59.49479	3675.759	
59.50307	3682.242	
59.61004	3666.607	
59.61899	3671.175	
59.71781	3655.145	
59.72696	3670.167	
59.83137	3657.093	
59.83962	3649.681	
59.94086	3650.271	
59.94971	3656.11	
60.054	3645.972	
60.06269	3637.455	
60.16586	3634.137	
60.17384	3628.114	
60.27513	3634.149	
60.28372	3630.982	
60.38666	3613.47	
60.39554	3622.075	
60.4992	3613.17	
60.50853	3615.24	
60.61375	3602.771	
60.62073	3601.23	
60.72102	3596.5	
60.73015	3595.146	
60.8343	3596.798	
60.84334	3584.547	
60.94783	3588.715	
60.95518	3586.079	
61.06048	3575.315	
61.0702	3576.794	
61.17136	3574.118	
61.18151	3568.21	
61.28534	3556.247	
61.29329	3557.401	
61.39479	3546.433	
61.40347	3553.461	
61.50666	3539.149	
61.51431	3538.399	
61.6181	3535.341	
61.62469	3538.686	
61.7281	3535.353	
61.73431	3534.708	
61.83593	3531.335	
61.84235	3529.788	
61.94603	3529.251	
61.95227	3530.065	
62.0577	3518.567	
62.06371	3513.497	
62.1653	3514.047	
62.17152	3507.766	
62.27485	3515.289	
62.2817	3500.079	
62.38512	3499.547	
62.39165	3502.011	
62.49373	3492.076	
62.50238	3499.959	
62.60165	3491.898	
62.60832	3482.921	
62.71421	3490.799	
62.72091	3482.618	
62.82199	3478.156	
62.82812	3478.384	
62.93114	3474.222	
62.93744	3475.455	
63.04187	3462.307	
63.04832	3470.824	
63.15128	3461.018	
63.15763	3466.48	
63.26035	3453.062	
63.26954	3436.457	
63.37362	3444.001	
63.38005	3442.952	
63.48467	3444.62	
63.49099	3447.538	
63.5969	3431.923	
63.60323	3439.237	
63.70564	3428.227	
63.71203	3425.501	
63.81494	3429.363	
63.8213	3419.831	
63.92578	3429.109	
63.93197	3419.735	
64.03488	3413.763	
64.04118	3421.816	
64.14558	3416.604	
64.15165	3420.867	
64.25478	3404.495	
64.26186	3401.156	
64.36324	3408.837	
64.36975	3397.415	
64.47278	3404.043	
64.47906	3406.126	
64.5826	3398.088	
64.58907	3396.053	
64.69378	3394.28	
64.70019	3404.253	
64.80094	3393.083	
64.80702	3391.74	
64.91199	3398.575	
64.92124	3392.441	
65.02477	3388.043	
65.03075	3389.22	
65.13364	3386.497	
65.13999	3384.063	
65.24484	3394.9	
65.25143	3378.733	
65.35446	3387.912	
65.36046	3385.987	
65.46378	3376.987	
65.47005	3386.877	
65.57344	3374.197	
65.57988	3384.336	
65.68169	3381.128	
65.68792	3378.338	
65.79616	3376.848	
65.80256	3390.097	
65.90494	3380.479	
65.91128	3374.313	
66.01541	3390.76	
66.02208	3379.513	
66.12611	3389.265	
66.13224	3378.303	
66.23307	3385.877	
66.2393	3393.215	
66.3452	3398.013	
66.35197	3399.647	
66.45298	3396.252	
66.45918	3395.574	
66.5602	3401.416	
66.56648	3395.262	
66.67152	3403.11	
66.67825	3400.236	
66.78173	3422.177	
66.78825	3416.996	
66.8923	3423.351	
66.89849	3419.288	
67.00437	3418.897	
67.01115	3440.896	
67.11115	3440.843	
67.11759	3439.428	
67.22144	3448.047	
67.22774	3444.885	
67.33073	3469.967	
67.33811	3464.223	
67.44048	3473.329	
67.4468	3479.646	
67.55025	3487.711	
67.55685	3490.09	
67.65736	3501.548	
67.66393	3511.123	
67.76836	3509.24	
67.77467	3521.794	
67.87855	3525.679	
67.88501	3532.416	
67.98638	3535.831	
67.99284	3542.004	
68.0978	3567.859	
68.10461	3562.333	
68.20478	3584.188	
68.21143	3585.961	
68.31602	3604.915	
68.3225	3617.229	
68.42605	3636.055	
68.43233	3640.676	
68.53352	3657.29	
68.54042	3657.767	
68.64434	3686.897	
68.65111	3687.042	
68.75574	3709.401	
68.76554	3728.865	
68.86711	3748.363	
68.87606	3757.307	
68.97633	3780.995	
68.98276	3788.834	
69.08831	3825.992	
69.09562	3826.533	
69.19437	3867.294	
69.2012	3875.833	
69.30499	3907.463	
69.31124	3909.68	
69.41571	3944.528	
69.42324	3963.389	
69.52356	3990.238	
69.53014	3999.715	
69.63316	4049.797	
69.63925	4049.184	
69.74271	4097.677	
69.7495	4101.26	
69.85343	4143.099	
69.85976	4156.65	
69.96278	4207.619	
69.96925	4210.323	
70.07403	4266.793	
70.0813	4272.99	
70.18056	4321.412	
70.18691	4333.495	
70.29243	4398.604	
70.29874	4412.545	
70.40129	4469.904	
70.41041	4478.01	
70.51532	4548.035	
70.52194	4556.313	
70.62469	4635.741	
70.63107	4640.296	
70.73428	4708.997	
70.74049	4719.634	
70.84133	4805.967	
70.84763	4823.031	
70.95306	4894.878	
70.96022	4916.927	
71.06237	4986.638	
71.06927	5014.241	
71.17247	5090.144	
71.17894	5098.189	
71.28183	5175.072	
71.28801	5189.139	
71.39124	5273.946	
71.40031	5279.22	
71.50269	5359.529	
71.50905	5372.654	
71.61765	5444.987	
71.6243	5450.041	
71.72767	5539.898	
71.7347	5552.742	
71.83688	5625.176	
71.84298	5637.401	
71.94995	5732.117	
71.95589	5738.292	
72.06116	5833.347	
72.06863	5845.7	
72.16955	5917.661	
72.17581	5941.342	
72.27853	6039.271	
72.28779	6055.587	
72.38757	6114.116	
72.39606	6129.951	
72.49779	6202.54	
72.50452	6227.06	
72.61293	6292.434	
72.61926	6303.336	
72.72218	6369.69	
72.72849	6373.391	
72.82867	6446.384	
72.83537	6453.8	
72.94041	6516.161	
72.94637	6534.246	
73.05032	6582.372	
73.0582	6578.773	
73.16151	6647.961	
73.16834	6633.692	
73.26756	6689.997	
73.27366	6674.63	
73.37819	6732.574	
73.38609	6735.513	
73.48981	6771.028	
73.49609	6787.491	
73.60143	6817.578	
73.60768	6820.072	
73.71278	6855.577	
73.72049	6866.729	
73.82102	6900.16	
73.82716	6891.683	
73.92904	6911.497	
73.93513	6910.227	
74.0405	6955.254	
74.04888	6935.333	
74.15101	6962.373	
74.15733	6951.916	
74.25951	6990.891	
74.26543	6991.196	
74.36948	7021.63	
74.37573	7020.997	
74.48418	7034.417	
74.49036	7035.124	
74.59153	7039.79	
74.59804	7048.645	
74.70247	7078.441	
74.7088	7061.724	
74.81152	7073.006	
74.81848	7073.578	
74.92176	7095.838	
74.93002	7089.156	
75.03034	7110.327	
75.03674	7105.775	
75.14233	7113.931	
75.15016	7129.403	
75.25114	7125.941	
75.25802	7140.678	
75.36036	7129.167	
75.37009	7130.849	
75.47501	7147.202	
75.48158	7162.366	
75.58394	7169.107	
75.59285	7155.397	
75.69349	7179.99	
75.69954	7164.527	
75.80058	7200.299	
75.81025	7180.684	
75.91509	7179.404	
75.92103	7186.76	
76.0237	7204.201	
76.03271	7210.436	
76.13715	7203.304	
76.14348	7199.859	
76.24724	7205.141	
76.25633	7219.074	
76.36021	7220.993	
76.36655	7224.082	
76.46988	7215.626	
76.47912	7220.767	
76.58451	7225.229	
76.59065	7222.841	
76.69196	7226.842	
76.70127	7234.607	
76.80204	7226.076	
76.80851	7224.421	
76.9155	7230.874	
76.92186	7240.32	
77.02496	7239.916	
77.0313	7253.184	
77.13678	7239.592	
77.14319	7244.537	
77.24393	7273.25	
77.25047	7255.646	
77.35811	7256.66	
77.36457	7247.273	
77.46705	7249.08	
77.47357	7255.168	
77.57595	7259.915	
77.58192	7256.352	
