T[Â°C]	330nm [counts / mm]	S.D.	First derivative	S.D. of first derivative
20.00084	3329.14	14.10366	-48.63466	2.202442
20.05479	3326.496	14.33451	-48.55957	2.136109
20.10874	3323.852	14.56924	-48.48455	2.070397
20.16269	3321.209	14.80756	-48.4096	2.005332
20.21665	3318.568	15.04919	-48.33473	1.940931
20.2706	3315.929	15.2934	-48.25995	1.877217
20.32455	3313.292	15.53987	-48.18528	1.814212
20.3785	3310.657	15.78801	-48.11073	1.751934
20.43245	3308.026	16.03739	-48.03632	1.690407
20.4864	3305.397	16.28807	-47.96205	1.629654
20.54036	3302.772	16.5402	-47.88795	1.569693
20.59431	3300.149	16.79392	-47.81402	1.510546
20.64826	3297.529	17.04927	-47.74028	1.452238
20.70221	3294.91	17.30636	-47.66676	1.394786
20.75616	3292.291	17.56592	-47.59346	1.338212
20.81011	3289.671	17.82882	-47.52039	1.28254
20.86407	3287.048	18.09764	-47.44757	1.227784
20.91802	3284.417	18.37893	-47.37502	1.173971
20.97197	3281.778	18.68639	-47.30274	1.12112
21.02592	3279.218	18.92535	-47.23074	1.069253
21.07987	3276.662	19.11477	-47.15905	1.018389
21.13382	3274.11	19.24902	-47.08765	0.9685518
21.18777	3271.563	19.32729	-47.01655	0.9197687
21.24173	3269.02	19.35558	-46.94577	0.8720672
21.29568	3266.48	19.34458	-46.8753	0.8254766
21.34963	3263.945	19.30809	-46.80514	0.7800315
21.40358	3261.412	19.26567	-46.73528	0.735769
21.45753	3258.88	19.23124	-46.66573	0.6927238
21.51148	3256.352	19.20828	-46.59646	0.6509505
21.56544	3253.833	19.19312	-46.52748	0.6105024
21.61939	3251.33	19.18058	-46.45877	0.5714424
21.67334	3248.854	19.16212	-46.39031	0.5338571
21.72729	3246.404	19.12587	-46.32209	0.4978466
21.78124	3243.974	19.06236	-46.25409	0.4635416
21.8352	3241.549	18.96763	-46.18629	0.4311107
21.88915	3239.118	18.84224	-46.11867	0.4007733
21.9431	3236.675	18.69424	-46.05119	0.3728053
21.99705	3234.22	18.53625	-45.98382	0.34757
22.051	3231.755	18.3766	-45.91651	0.3255165
22.10495	3229.277	18.22199	-45.8492	0.3071824
22.15891	3226.787	18.07718	-45.78184	0.29318
22.21286	3224.287	17.94699	-45.71433	0.2841149
22.26681	3221.787	17.83466	-45.6466	0.2804714
22.32076	3219.296	17.73801	-45.57853	0.282458
22.37471	3216.827	17.64734	-45.51006	0.2898535
22.42866	3214.387	17.55472	-45.44111	0.3018863
22.48261	3211.976	17.451	-45.37169	0.3171738
22.53657	3209.59	17.32493	-45.30194	0.3337758
22.59052	3207.222	17.16641	-45.23217	0.3494836
22.64447	3204.86	16.97383	-45.18653	0.341016
22.69842	3202.494	16.75068	-45.14357	0.3314332
22.75237	3200.117	16.50488	-45.10336	0.3206922
22.80632	3197.729	16.25064	-45.06596	0.3087668
22.86028	3195.334	16.00754	-45.0314	0.2956457
22.91423	3192.935	15.79341	-44.99971	0.2813647
22.96818	3190.531	15.61827	-44.97091	0.2659903
23.02213	3188.123	15.48626	-44.94496	0.2496652
23.07608	3185.712	15.39812	-44.92182	0.2325885
23.13003	3183.304	15.35417	-44.90142	0.2150487
23.18399	3180.899	15.35419	-44.88365	0.1974148
23.23794	3178.501	15.39393	-44.86837	0.1801635
23.29189	3176.115	15.46562	-44.85542	0.1638855
23.34584	3173.744	15.56261	-44.84464	0.1492953
23.39979	3171.387	15.67676	-44.83586	0.1372
23.45374	3169.041	15.80123	-44.82887	0.1283786
23.5077	3166.698	15.93232	-44.82346	0.1233759
23.56165	3164.35	16.0697	-44.81942	0.122268
23.6156	3161.998	16.21565	-44.81652	0.1245823
23.66955	3159.644	16.37458	-44.81454	0.1294375
23.7235	3157.291	16.55072	-44.81325	0.1358427
23.77745	3154.94	16.74406	-44.81246	0.1429062
23.83141	3152.585	16.94699	-44.81197	0.1499419
23.88536	3150.224	17.14907	-44.81161	0.1564823
23.93931	3147.854	17.34245	-44.8112	0.1622677
23.99326	3145.474	17.52178	-44.81062	0.1672152
24.04721	3143.082	17.68743	-44.80973	0.1713984
24.10116	3140.679	17.84237	-44.80844	0.1750268
24.15512	3138.263	17.98775	-44.80667	0.1784414
24.20907	3135.837	18.12021	-44.80433	0.1820667
24.26302	3133.401	18.2313	-44.8013	0.1863994
24.31697	3130.955	18.31468	-44.79745	0.1919479
24.37092	3128.5	18.36875	-44.79266	0.199174
24.42487	3126.04	18.3991	-44.78679	0.208453
24.47882	3123.576	18.4146	-44.77974	0.2200264
24.53278	3121.109	18.422	-44.7714	0.23399
24.58673	3118.635	18.42512	-44.76169	0.2502657
24.64068	3116.15	18.42624	-44.75053	0.2686208
24.69463	3113.656	18.42736	-44.73782	0.2886975
24.74858	3111.16	18.43175	-44.72349	0.3100516
24.80253	3108.668	18.44425	-44.70747	0.3321728
24.85649	3106.182	18.46998	-44.68972	0.3545384
24.91044	3103.702	18.5089	-44.6702	0.3766336
24.96439	3101.227	18.55635	-44.64887	0.3979775
25.01834	3098.751	18.60777	-44.62575	0.4181458
25.07229	3096.275	18.65829	-44.60085	0.4367827
25.12625	3093.798	18.70277	-44.5742	0.4536064
25.1802	3091.324	18.73413	-44.54589	0.468422
25.23415	3088.858	18.74553	-44.51601	0.4811153
25.2881	3086.403	18.7314	-44.4847	0.4916549
25.34205	3083.961	18.68875	-44.45206	0.5000912
25.396	3081.531	18.6185	-44.41825	0.5065629
25.44995	3079.112	18.52486	-44.3834	0.5112919
25.50391	3076.701	18.41031	-44.34763	0.514541
25.55786	3074.291	18.27342	-44.31104	0.5166359
25.61181	3071.882	18.11238	-44.27374	0.5179124
25.66576	3069.474	17.92842	-44.23584	0.5186838
25.71971	3067.073	17.72458	-44.19744	0.5192357
25.77366	3064.678	17.50466	-44.15863	0.5197679
25.82762	3062.285	17.2745	-44.11951	0.5203912
25.88157	3059.89	17.03995	-44.08018	0.5211285
25.93552	3057.488	16.80323	-44.04074	0.5219132
25.98947	3055.076	16.56265	-44.00128	0.5226187
26.04342	3052.659	16.31517	-43.96188	0.5230646
26.09737	3050.243	16.06078	-43.92264	0.5230472
26.15133	3047.834	15.8006	-43.88363	0.5223624
26.20528	3045.44	15.5379	-43.84495	0.5208365
26.25923	3043.062	15.28085	-43.80666	0.5183216
26.31318	3040.699	15.04138	-43.76878	0.5147282
26.36713	3038.355	14.83049	-43.73133	0.5100118
26.42108	3036.032	14.65558	-43.69431	0.5041816
26.47503	3033.733	14.51941	-43.65773	0.4972962
26.52899	3031.456	14.4214	-43.62159	0.4894371
26.58294	3029.196	14.35802	-43.5859	0.4806736
26.63689	3026.949	14.32547	-43.55063	0.4710509
26.69084	3024.71	14.32125	-43.51581	0.4605814
26.74479	3022.47	14.34591	-43.48144	0.449228
26.79875	3020.228	14.40153	-43.44754	0.4369177
26.8527	3017.982	14.48592	-43.41414	0.4235639
26.90665	3015.738	14.59452	-43.38126	0.4090692
26.9606	3013.497	14.7247	-43.34893	0.3933532
27.01455	3011.256	14.87491	-43.31716	0.3763606
27.0685	3009.011	15.04567	-43.286	0.358084
27.12246	3006.758	15.2403	-43.25546	0.338574
27.17641	3004.497	15.45992	-43.22562	0.3179549
27.23036	3002.229	15.70233	-43.19657	0.2964408
27.28431	2999.955	15.95948	-43.16838	0.2743571
27.33826	2997.676	16.22094	-43.14117	0.2521651
27.39221	2995.391	16.47914	-43.11504	0.2305146
27.44617	2993.1	16.72696	-43.09008	0.2102896
27.50012	2990.801	16.95744	-43.06639	0.1926313
27.55407	2988.487	17.16972	-43.04404	0.1789164
27.60802	2986.154	17.36575	-43.02311	0.1705461
27.66197	2983.801	17.54618	-43.00366	0.1685731
27.71592	2981.429	17.70865	-42.98577	0.1732422
27.76987	2979.043	17.85071	-42.96949	0.1839201
27.82383	2976.65	17.97236	-42.95486	0.1994322
27.87778	2974.254	18.07602	-42.94185	0.2184983
27.93173	2971.86	18.1624	-42.93045	0.2400519
27.98568	2969.471	18.23001	-42.92059	0.2633144
28.03963	2967.087	18.27742	-42.91216	0.2877562
28.09358	2964.706	18.30177	-42.90506	0.3130425
28.14754	2962.33	18.30003	-42.89915	0.3389518
28.20149	2959.957	18.27301	-42.89431	0.3653488
28.25544	2957.587	18.22504	-42.8904	0.392123
28.30939	2955.22	18.16413	-42.88725	0.4191714
28.36334	2952.856	18.098	-42.88469	0.446355
28.41729	2950.496	18.032	-42.88254	0.4734957
28.47125	2948.139	17.96633	-42.88065	0.5003667
28.5252	2945.783	17.89499	-42.87885	0.5266951
28.57915	2943.432	17.81385	-42.877	0.5521843
28.6331	2941.09	17.72442	-42.87496	0.5765524
28.68705	2938.76	17.62996	-42.87262	0.5995265
28.741	2936.442	17.53257	-42.86989	0.6208687
28.79496	2934.137	17.4331	-42.86668	0.6403739
28.84891	2931.846	17.33026	-42.86291	0.657865
28.90286	2929.571	17.22555	-42.85845	0.6732057
28.95681	2927.311	17.11944	-42.85321	0.6862939
29.01076	2925.056	17.01033	-42.84703	0.6970611
29.06471	2922.803	16.89538	-42.83982	0.705467
29.11867	2920.548	16.77367	-42.83144	0.7114872
29.17262	2918.287	16.6439	-42.82181	0.7151257
29.22657	2916.017	16.5069	-42.81086	0.7163894
29.28052	2913.735	16.36507	-42.79853	0.7153112
29.33447	2911.44	16.22499	-42.78479	0.7119259
29.38842	2909.134	16.094	-42.76963	0.7062611
29.44238	2906.824	15.97397	-42.75304	0.6983398
29.49633	2904.522	15.86596	-42.73506	0.6881905
29.55028	2902.235	15.77295	-42.71569	0.6758397
29.60423	2899.964	15.69686	-42.69502	0.6613271
29.65818	2897.704	15.63654	-42.67311	0.6447133
29.71213	2895.45	15.58761	-42.6501	0.6260705
29.76608	2893.193	15.54443	-42.62611	0.6055081
29.82004	2890.927	15.5054	-42.60124	0.5831844
29.87399	2888.648	15.47278	-42.5756	0.5593426
29.92794	2886.351	15.45074	-42.54926	0.5343298
29.98189	2884.035	15.44318	-42.52224	0.5085899
30.03584	2881.7	15.45021	-42.49458	0.4826981
30.0898	2879.352	15.4657	-42.46627	0.4573579
30.14375	2876.995	15.48204	-42.43731	0.4334373
30.1977	2874.635	15.49515	-42.40767	0.4119226
30.25165	2872.276	15.50819	-42.37733	0.3938937
30.3056	2869.928	15.53187	-42.34625	0.3804165
30.35955	2867.596	15.57987	-42.3144	0.3723758
30.41351	2865.289	15.66506	-42.28176	0.3703111
30.46746	2863.014	15.79238	-42.24833	0.3742775
30.52141	2860.767	15.95902	-42.21414	0.3838476
30.57536	2858.542	16.15683	-42.1792	0.3982166
30.62931	2856.332	16.3714	-42.14357	0.4163961
30.68326	2854.125	16.5835	-42.10729	0.4373998
30.73722	2851.908	16.77828	-42.07045	0.4603314
30.79117	2849.674	16.94754	-42.03315	0.4844694
30.84512	2847.418	17.08717	-41.99546	0.5092548
30.89907	2845.139	17.20005	-41.95747	0.5342773
30.95302	2842.832	17.29188	-41.91928	0.5592086
31.00697	2840.497	17.36847	-41.88096	0.5837661
31.06092	2838.141	17.43582	-41.84257	0.6076992
31.11488	2835.777	17.49805	-41.80418	0.6307817
31.16883	2833.418	17.55745	-41.76583	0.6528102
31.22278	2831.074	17.61277	-41.7276	0.6736066
31.27673	2828.748	17.65764	-41.68954	0.693003
31.33068	2826.436	17.68721	-41.65168	0.7108418
31.38463	2824.137	17.69631	-41.61407	0.7269719
31.43859	2821.853	17.67865	-41.57674	0.7412524
31.49254	2819.584	17.63117	-41.53974	0.7535732
31.54649	2817.331	17.55301	-41.50309	0.7638488
31.60044	2815.087	17.44476	-41.46685	0.7720231
31.65439	2812.849	17.30965	-41.4311	0.7780846
31.70834	2810.609	17.14829	-41.39593	0.7820598
31.7623	2808.365	16.95873	-41.36141	0.7840081
31.81625	2806.119	16.74039	-41.32765	0.7840215
31.8702	2803.873	16.49852	-41.29475	0.7822225
31.92415	2801.631	16.24356	-41.26282	0.7787459
31.9781	2799.401	15.98989	-41.23195	0.7737204
32.03205	2797.19	15.75065	-41.20224	0.7672607
32.08601	2795.002	15.53141	-41.17374	0.7594725
32.13996	2792.841	15.33132	-41.14649	0.7504319
32.19391	2790.706	15.14674	-41.12047	0.740199
32.24786	2788.59	14.9724	-41.09565	0.7287747
32.30181	2786.489	14.80364	-41.07194	0.7161218
32.35576	2784.393	14.63654	-41.04926	0.7021658
32.40971	2782.294	14.46976	-41.02749	0.6867884
32.46367	2780.19	14.30979	-41.00653	0.6698424
32.51762	2778.079	14.16706	-40.98626	0.6511512
32.57157	2775.958	14.05359	-40.96657	0.6305398
32.62552	2773.823	13.97538	-40.94734	0.6078606
32.67947	2771.672	13.93297	-40.92845	0.5830242
32.73343	2769.505	13.92386	-40.90982	0.5560245
32.78738	2767.325	13.94071	-40.89137	0.5269547
32.84133	2765.137	13.97447	-40.87304	0.4960328
32.89528	2762.945	14.01979	-40.8548	0.4636286
32.94923	2760.747	14.07433	-40.83665	0.43028
33.00319	2758.544	14.13863	-40.81859	0.396724
33.05714	2756.336	14.21234	-40.8006	0.3639344
33.11109	2754.13	14.29541	-40.78267	0.3331805
33.16504	2751.928	14.38498	-40.76477	0.3060587
33.21899	2749.735	14.4713	-40.74685	0.2844391
33.27294	2747.544	14.54646	-40.7289	0.2701925
33.32689	2745.349	14.60919	-40.71087	0.2646867
33.38084	2743.149	14.66073	-40.69274	0.2682304
33.4348	2740.942	14.70111	-40.67448	0.2798946
33.48875	2738.73	14.73462	-40.65601	0.2979153
33.5427	2736.52	14.77253	-40.63729	0.3202791
33.59665	2734.316	14.82928	-40.61827	0.3451593
33.6506	2732.12	14.9149	-40.59896	0.371074
33.70456	2729.935	15.02968	-40.57935	0.3968856
33.75851	2727.757	15.16514	-40.55944	0.4217506
33.81246	2725.577	15.31079	-40.53925	0.4450125
33.86641	2723.385	15.45583	-40.51885	0.4661464
33.92036	2721.179	15.59102	-40.49831	0.484715
33.97431	2718.959	15.71068	-40.47775	0.5003514
34.02826	2716.729	15.81269	-40.45728	0.5127296
34.08222	2714.491	15.8997	-40.43705	0.5215813
34.13617	2712.244	15.97671	-40.41716	0.5266944
34.19012	2709.982	16.05142	-40.39771	0.5279316
34.24407	2707.708	16.13177	-40.37878	0.525234
34.29802	2705.426	16.22397	-40.36044	0.5186257
34.35197	2703.143	16.32757	-40.34271	0.5082292
34.40593	2700.86	16.4399	-40.3256	0.494282
34.45988	2698.583	16.55716	-40.30907	0.4771795
34.51383	2696.317	16.6742	-40.29306	0.457516
34.56778	2694.065	16.78609	-40.2775	0.4361056
34.62173	2691.829	16.8914	-40.26225	0.4140233
34.67569	2689.608	16.99048	-40.2472	0.3926054
34.72964	2687.401	17.08462	-40.2322	0.3734277
34.78359	2685.206	17.17201	-40.21709	0.3582025
34.83754	2683.026	17.24837	-40.20173	0.3485563
34.89149	2680.859	17.30784	-40.18596	0.3457057
34.94544	2678.706	17.34282	-40.16964	0.350158
34.99939	2676.56	17.35091	-40.15265	0.3615979
35.05334	2674.416	17.33535	-40.13489	0.3790371
35.1073	2672.274	17.30126	-40.11625	0.4011137
35.16125	2670.139	17.25379	-40.09666	0.4264008
35.2152	2668.015	17.19858	-40.07603	0.453615
35.26915	2665.907	17.14076	-40.05434	0.4817059
35.3231	2663.819	17.08452	-40.03156	0.5098913
35.37706	2661.751	17.02637	-40.00766	0.5376016
35.43101	2659.702	16.95798	-39.98265	0.5644494
35.48496	2657.671	16.87169	-39.95654	0.5901769
35.53891	2655.648	16.76524	-39.92935	0.6146079
35.59286	2653.626	16.6404	-39.90115	0.6376531
35.64681	2651.604	16.50089	-39.87199	0.6592471
35.70076	2649.579	16.34841	-39.84199	0.679368
35.75472	2647.548	16.18299	-39.81122	0.6979954
35.80867	2645.503	16.00596	-39.7798	0.7151307
35.86262	2643.434	15.81691	-39.74786	0.7307959
35.91657	2641.334	15.61737	-39.71555	0.745001
35.97052	2639.204	15.41156	-39.68304	0.7577615
36.02448	2637.051	15.20637	-39.65055	0.7690963
36.07843	2634.887	15.00928	-39.61833	0.7790361
36.13238	2632.713	14.82404	-39.58662	0.7876158
36.18633	2630.532	14.64841	-39.55567	0.794867
36.24028	2628.349	14.48219	-39.52573	0.8008156
36.29424	2626.171	14.32806	-39.49704	0.8054868
36.34819	2624.002	14.18734	-39.46979	0.8089107
36.40214	2621.841	14.05763	-39.44417	0.8111262
36.45609	2619.682	13.93634	-39.42035	0.8121609
36.51004	2617.523	13.82258	-39.39845	0.8120497
36.56399	2615.363	13.71644	-39.37856	0.8108212
36.61794	2613.196	13.61541	-39.36069	0.8084971
36.67189	2611.018	13.51853	-39.34481	0.805082
36.72585	2608.823	13.4279	-39.33084	0.8005632
36.7798	2606.612	13.34765	-39.31862	0.7948954
36.83375	2604.384	13.28301	-39.30798	0.7880194
36.8877	2602.148	13.23716	-39.2987	0.7798535
36.94165	2599.912	13.21327	-39.29055	0.770319
36.99561	2597.684	13.21607	-39.28326	0.7593406
37.04956	2595.471	13.24838	-39.27656	0.7468611
37.10351	2593.281	13.3088	-39.27021	0.7328496
37.15746	2591.117	13.39238	-39.26393	0.7173011
37.21141	2588.978	13.49506	-39.25747	0.7002434
37.26536	2586.865	13.61514	-39.25061	0.6817333
37.31931	2584.774	13.74967	-39.24312	0.6618475
37.37326	2582.703	13.89569	-39.23483	0.6406741
37.42722	2580.648	14.04818	-39.22558	0.618323
37.48117	2578.605	14.19836	-39.21525	0.5949146
37.53512	2576.571	14.33839	-39.20375	0.5705809
37.58907	2574.541	14.46447	-39.19101	0.5454662
37.64302	2572.509	14.57633	-39.17694	0.5197258
37.69698	2570.472	14.67384	-39.16151	0.4935352
37.75093	2568.43	14.75714	-39.14466	0.467066
37.80488	2566.382	14.82278	-39.12635	0.440488
37.85883	2564.33	14.86632	-39.10658	0.4139453
37.91278	2562.273	14.88817	-39.08533	0.3875569
37.96674	2560.214	14.89364	-39.06263	0.3614132
38.02069	2558.153	14.89142	-39.03854	0.3355961
38.07464	2556.087	14.89011	-39.01312	0.3101653
38.12859	2554.013	14.89382	-38.98646	0.2851487
38.18254	2551.93	14.9025	-38.95866	0.2605471
38.23649	2549.838	14.91315	-38.92986	0.2363281
38.29044	2547.74	14.92037	-38.9002	0.2124351
38.34439	2545.636	14.91629	-38.86982	0.1888037
38.39835	2543.524	14.89308	-38.83892	0.1653692
38.4523	2541.4	14.84925	-38.80768	0.1420772
38.50625	2539.264	14.78637	-38.77632	0.118902
38.5602	2537.12	14.70787	-38.74506	0.09587603
38.61415	2534.966	14.61652	-38.7141	0.07318117
38.66811	2532.806	14.51806	-38.68359	0.05147673
38.72206	2530.645	14.4168	-38.65366	0.03336184
38.77601	2528.489	14.31564	-38.62441	0.02820596
38.82996	2526.344	14.21659	-38.59591	0.04192094
38.88391	2524.212	14.12132	-38.56824	0.06372393
38.93786	2522.093	14.02998	-38.54141	0.08810271
38.99181	2519.988	13.94652	-38.51543	0.1135689
39.04576	2517.897	13.8748	-38.49031	0.1395422
39.09972	2515.824	13.81539	-38.466	0.1656443
39.15367	2513.766	13.76283	-38.44249	0.191564
39.20762	2511.722	13.71277	-38.41971	0.216987
39.26157	2509.69	13.66273	-38.3976	0.2416244
39.31553	2507.666	13.61177	-38.3761	0.2651949
39.36948	2505.644	13.56024	-38.35515	0.2874497
39.42343	2503.618	13.50632	-38.33471	0.3081574
39.47738	2501.583	13.45005	-38.31475	0.3271315
39.53133	2499.536	13.39367	-38.29523	0.3442281
39.58528	2497.48	13.34009	-38.27612	0.3593613
39.63924	2495.415	13.29303	-38.25736	0.3724835
39.69319	2493.342	13.25613	-38.23891	0.3835774
39.74714	2491.259	13.23145	-38.22074	0.3926626
39.80109	2489.17	13.21801	-38.20279	0.3997782
39.85504	2487.075	13.21445	-38.18502	0.4049694
39.90899	2484.974	13.21986	-38.16739	0.4082839
39.96294	2482.868	13.23551	-38.1498	0.4097483
40.0169	2480.76	13.26279	-38.13216	0.4093599
40.07085	2478.652	13.30525	-38.11436	0.4070997
40.1248	2476.545	13.36485	-38.09623	0.4029285
40.17875	2474.446	13.44291	-38.07759	0.396804
40.2327	2472.359	13.53864	-38.0583	0.3886925
40.28666	2470.292	13.64875	-38.03818	0.3785908
40.34061	2468.246	13.76882	-38.01712	0.3665339
40.39456	2466.22	13.89489	-37.99505	0.3525948
40.44851	2464.216	14.02225	-37.97189	0.3368957
40.50246	2462.232	14.14849	-37.94765	0.3195982
40.55641	2460.266	14.26821	-37.92234	0.300901
40.61036	2458.312	14.37959	-37.89602	0.2810412
40.66431	2456.364	14.48225	-37.86875	0.2602779
40.71827	2454.419	14.57709	-37.84062	0.2388979
40.77222	2452.47	14.66326	-37.81176	0.2171885
40.82617	2450.511	14.7404	-37.7823	0.1954301
40.88012	2448.537	14.80328	-37.75234	0.1738722
40.93407	2446.545	14.84711	-37.72199	0.1527452
40.98803	2444.534	14.86668	-37.69133	0.132261
41.04198	2442.506	14.85944	-37.66046	0.1126358
41.09593	2440.464	14.82785	-37.62941	0.09419396
41.14988	2438.412	14.77712	-37.59824	0.07757992
41.20383	2436.358	14.71297	-37.56699	0.06418309
41.25779	2434.309	14.64034	-37.53571	0.0566299
41.31174	2432.266	14.56488	-37.50445	0.05789557
41.36569	2430.232	14.49237	-37.47328	0.06828491
41.41964	2428.205	14.42914	-37.44226	0.08527236
41.47359	2426.178	14.37827	-37.41145	0.1063937
41.52754	2424.144	14.34102	-37.38093	0.1301694
41.58149	2422.095	14.31618	-37.35082	0.155753
41.63544	2420.023	14.29931	-37.32124	0.1826108
41.6894	2417.925	14.28585	-37.29232	0.210348
41.74335	2415.802	14.27258	-37.26423	0.2386437
41.7973	2413.666	14.2555	-37.23711	0.267215
41.85125	2411.527	14.23096	-37.21111	0.29581
41.9052	2409.397	14.197	-37.18633	0.3241876
41.95916	2407.283	14.15546	-37.16286	0.3521274
42.01311	2405.191	14.11118	-37.14074	0.3794087
42.06706	2403.123	14.06857	-37.11998	0.4058165
42.12101	2401.083	14.03084	-37.10051	0.4311491
42.17496	2399.073	14.00043	-37.08228	0.4552153
42.22891	2397.091	13.97516	-37.06516	0.4778279
42.28286	2395.131	13.95233	-37.049	0.4988051
42.33681	2393.188	13.93242	-37.03363	0.5179784
42.39077	2391.257	13.91878	-37.01888	0.5351749
42.44472	2389.33	13.91309	-37.00455	0.5502466
42.49867	2387.401	13.91628	-36.99046	0.5630388
42.55262	2385.464	13.92722	-36.97646	0.5734294
42.60658	2383.519	13.94329	-36.96238	0.5813169
42.66053	2381.571	13.95816	-36.94812	0.586635
42.71448	2379.627	13.96506	-36.93362	0.5893593
42.76843	2377.688	13.95933	-36.91884	0.5895221
42.82238	2375.757	13.94007	-36.90377	0.5872188
42.87633	2373.832	13.90836	-36.88839	0.5826005
42.93029	2371.912	13.86254	-36.87272	0.5758835
42.98424	2369.996	13.80197	-36.85678	0.5673364
43.03819	2368.077	13.73113	-36.84058	0.5572979
43.09214	2366.148	13.65572	-36.82414	0.5461385
