T[Â°C]	330nm [counts / mm]	S.D.	First derivative	S.D. of first derivative
20.00061	4990.793	10.79374	-68.21793	4.53859
20.05472	4986.947	10.8182	-68.19751	4.461821
20.10883	4983.108	10.84181	-68.17717	4.385662
20.16294	4979.275	10.86522	-68.15691	4.310156
20.21704	4975.448	10.888	-68.13673	4.235345
20.27115	4971.628	10.90975	-68.11665	4.161269
20.32526	4967.813	10.93062	-68.09666	4.08797
20.37937	4964.004	10.95038	-68.07677	4.015501
20.43348	4960.199	10.97017	-68.05699	3.943914
20.48759	4956.4	10.99062	-68.03732	3.873262
20.54169	4952.604	11.0117	-68.01778	3.803614
20.5958	4948.81	11.03482	-67.99836	3.735017
20.64991	4945.018	11.06013	-67.97906	3.667547
20.70402	4941.226	11.08851	-67.95992	3.60126
20.75813	4937.432	11.12025	-67.94091	3.536234
20.81223	4933.638	11.15601	-67.92204	3.472532
20.86634	4929.846	11.19516	-67.90334	3.410237
20.92045	4926.071	11.23668	-67.88479	3.34941
20.97456	4922.385	11.32693	-67.86639	3.290138
21.02867	4918.727	11.44099	-67.84817	3.232491
21.08278	4915.094	11.57845	-67.83012	3.176552
21.13688	4911.483	11.73457	-67.81223	3.122394
21.19099	4907.893	11.9047	-67.79451	3.0701
21.2451	4904.321	12.08169	-67.77697	3.019745
21.29921	4900.754	12.26341	-67.75961	2.9714
21.35332	4897.183	12.45403	-67.74244	2.925145
21.40742	4893.594	12.65529	-67.72546	2.881032
21.46153	4889.974	12.866	-67.70869	2.83914
21.51564	4886.321	13.0815	-67.69212	2.799515
21.56975	4882.632	13.29969	-67.67574	2.762211
21.62386	4878.91	13.51211	-67.65959	2.727261
21.67797	4875.159	13.70924	-67.64366	2.6947
21.73207	4871.392	13.88192	-67.62794	2.664564
21.78618	4867.622	14.02402	-67.61245	2.63687
21.84029	4863.858	14.12745	-67.59717	2.611643
21.8944	4860.111	14.19123	-67.58209	2.588888
21.94851	4856.389	14.21886	-67.56722	2.568623
22.00262	4852.695	14.21034	-67.55254	2.55085
22.05672	4849.024	14.1632	-67.53801	2.535567
22.11083	4845.371	14.0779	-67.52362	2.522784
22.16494	4841.731	13.95838	-67.50935	2.512471
22.21905	4838.101	13.81144	-67.49515	2.504611
22.27316	4834.478	13.64677	-67.48099	2.499139
22.32726	4830.863	13.47223	-67.46684	2.495958
22.38137	4827.256	13.29419	-67.45267	2.494885
22.43548	4823.658	13.11875	-67.4385	2.495624
22.48959	4820.065	12.95201	-67.42436	2.497724
22.5437	4816.474	12.79797	-67.41035	2.500519
22.59781	4812.885	12.6555	-67.39661	2.503237
22.65191	4809.298	12.52109	-67.3864	2.47892
22.70602	4805.722	12.39156	-67.37513	2.449818
22.76013	4802.162	12.26638	-67.36269	2.415651
22.81424	4798.618	12.14816	-67.34901	2.376193
22.86835	4795.086	12.03972	-67.33398	2.331322
22.92245	4791.563	11.94249	-67.31754	2.281015
22.97656	4788.042	11.85925	-67.29964	2.225333
23.03067	4784.513	11.79296	-67.28024	2.164446
23.08478	4780.964	11.74702	-67.25931	2.098608
23.13889	4777.386	11.72876	-67.23682	2.028185
23.193	4773.774	11.73741	-67.21274	1.953606
23.2471	4770.126	11.76247	-67.18707	1.875403
23.30121	4766.443	11.79246	-67.15978	1.794147
23.35532	4762.729	11.82273	-67.13091	1.710433
23.40943	4758.994	11.85564	-67.10047	1.624882
23.46354	4755.249	11.89261	-67.06851	1.538116
23.51765	4751.504	11.93496	-67.03513	1.450759
23.57175	4747.767	11.97882	-67.00047	1.363425
23.62586	4744.041	12.01772	-66.9647	1.276698
23.67997	4740.327	12.04785	-66.92802	1.191129
23.73408	4736.629	12.06869	-66.89066	1.107235
23.78819	4732.947	12.07699	-66.8529	1.025473
23.84229	4729.274	12.06833	-66.81497	0.946265
23.8964	4725.605	12.0435	-66.77709	0.8699611
23.95051	4721.94	12.01246	-66.73942	0.7968654
24.00462	4718.276	11.99312	-66.70212	0.72721
24.05873	4714.609	12.00121	-66.66529	0.6611903
24.11284	4710.936	12.04375	-66.62904	0.5989543
24.16694	4707.254	12.11984	-66.59341	0.5406139
24.22105	4703.57	12.22069	-66.5584	0.4862458
24.27516	4699.889	12.33224	-66.52393	0.4359076
24.32927	4696.215	12.43742	-66.48994	0.3896315
24.38338	4692.555	12.52192	-66.45626	0.3474852
24.43748	4688.917	12.58151	-66.42274	0.309588
24.49159	4685.306	12.62024	-66.38919	0.2762059
24.5457	4681.724	12.64519	-66.35538	0.2477988
24.59981	4678.162	12.66546	-66.32113	0.2250776
24.65392	4674.61	12.68776	-66.2862	0.2089463
24.70803	4671.06	12.71249	-66.2504	0.2003413
24.76213	4667.505	12.73768	-66.21356	0.1997938
24.81624	4663.942	12.76363	-66.17553	0.2070778
24.87035	4660.373	12.79577	-66.13618	0.2211461
24.92446	4656.803	12.84521	-66.09545	0.2404759
24.97857	4653.237	12.92238	-66.05328	0.2634736
25.03268	4649.682	13.03146	-66.00964	0.2886831
25.08678	4646.144	13.17535	-65.96451	0.3148506
25.14089	4642.623	13.35569	-65.91791	0.3409139
25.195	4639.115	13.56342	-65.86985	0.3659572
25.24911	4635.616	13.77668	-65.82035	0.3891772
25.30322	4632.122	13.96854	-65.76942	0.4098473
25.35732	4628.632	14.12091	-65.71712	0.4273333
25.41143	4625.146	14.2211	-65.66348	0.4410505
25.46554	4621.66	14.26072	-65.60858	0.4505239
25.51965	4618.171	14.23509	-65.55256	0.4553426
25.57376	4614.677	14.14605	-65.49557	0.4552114
25.62787	4611.182	14.00228	-65.4378	0.4499799
25.68197	4607.685	13.81797	-65.37947	0.4395946
25.73608	4604.191	13.60923	-65.32081	0.4241154
25.79019	4600.706	13.39215	-65.26205	0.4036795
25.8443	4597.232	13.17295	-65.20343	0.3785211
25.89841	4593.775	12.95374	-65.14514	0.3489191
25.95251	4590.332	12.73957	-65.08743	0.3152258
26.00662	4586.893	12.53814	-65.0305	0.277838
26.06073	4583.446	12.35826	-64.9746	0.2372477
26.11484	4579.977	12.20747	-64.91991	0.1940327
26.16895	4576.477	12.09195	-64.86663	0.1489421
26.22306	4572.943	12.01616	-64.81489	0.1030917
26.27716	4569.373	11.97777	-64.76481	0.05916137
26.33127	4565.769	11.96624	-64.71645	0.03238184
26.38538	4562.137	11.97058	-64.66985	0.0567349
26.43949	4558.493	11.98269	-64.62496	0.09824404
26.4936	4554.857	11.99438	-64.58172	0.1404116
26.5477	4551.239	12.00561	-64.54001	0.180398
26.60181	4547.644	12.02359	-64.49967	0.2170142
26.65592	4544.071	12.05794	-64.46053	0.2494773
26.71003	4540.518	12.11629	-64.42237	0.2771915
26.76414	4536.98	12.20656	-64.385	0.2997352
26.81825	4533.458	12.33418	-64.34822	0.31685
26.87235	4529.951	12.49852	-64.31181	0.3284097
26.92646	4526.456	12.69443	-64.27557	0.334432
26.98057	4522.97	12.90388	-64.23933	0.3350675
27.03468	4519.493	13.10812	-64.20292	0.3306262
27.08879	4516.022	13.29006	-64.1662	0.3215384
27.1429	4512.561	13.4392	-64.12905	0.3083325
27.197	4509.107	13.54807	-64.09137	0.291623
27.25111	4505.667	13.60623	-64.05311	0.2720767
27.30522	4502.238	13.60561	-64.01423	0.2503866
27.35933	4498.825	13.54559	-63.97472	0.227283
27.41344	4495.428	13.43253	-63.93462	0.2034985
27.46754	4492.043	13.27828	-63.89394	0.1797217
27.52165	4488.665	13.10027	-63.85271	0.1565742
27.57576	4485.287	12.91724	-63.81094	0.1345645
27.62987	4481.906	12.7441	-63.76859	0.1140763
27.68398	4478.518	12.59537	-63.72562	0.09535583
27.73809	4475.118	12.48301	-63.68196	0.07850216
27.79219	4471.705	12.41379	-63.63752	0.06347857
27.8463	4468.28	12.38376	-63.59228	0.05017592
27.90041	4464.847	12.38155	-63.5462	0.03855601
27.95452	4461.412	12.39557	-63.49934	0.02900551
28.00863	4457.974	12.4184	-63.45182	0.02317087
28.06273	4454.535	12.44549	-63.40378	0.02401175
28.11684	4451.092	12.47283	-63.35547	0.03168019
28.17095	4447.646	12.49855	-63.30716	0.04347397
28.22506	4444.198	12.52697	-63.25919	0.05762316
28.27917	4440.752	12.55965	-63.21189	0.07331128
28.33328	4437.309	12.59871	-63.16563	0.09005136
28.38738	4433.869	12.64575	-63.12074	0.1074544
28.44149	4430.435	12.69925	-63.07754	0.1251674
28.4956	4427.004	12.75679	-63.03629	0.1428634
28.54971	4423.58	12.82136	-62.99718	0.1602357
28.60382	4420.164	12.89564	-62.96035	0.1769926
28.65793	4416.758	12.97679	-62.92588	0.1928651
28.71203	4413.362	13.06014	-62.89375	0.2075788
28.76614	4409.977	13.13892	-62.8639	0.2208492
28.82025	4406.601	13.20926	-62.8362	0.2323883
28.87436	4403.23	13.27256	-62.81049	0.241904
28.92847	4399.86	13.32954	-62.78656	0.2491466
28.98257	4396.49	13.37324	-62.76418	0.2539286
29.03668	4393.117	13.39522	-62.74313	0.2561534
29.09079	4389.738	13.39097	-62.72319	0.2558077
29.1449	4386.356	13.35969	-62.70412	0.2530088
29.19901	4382.97	13.30481	-62.6857	0.2480202
29.25312	4379.58	13.23002	-62.66775	0.2413096
29.30722	4376.189	13.13344	-62.65011	0.2336372
29.36133	4372.804	13.01739	-62.63269	0.2261647
29.41544	4369.429	12.88794	-62.61541	0.2205158
29.46955	4366.068	12.75509	-62.59821	0.2187427
29.52366	4362.72	12.62498	-62.58104	0.2230734
29.57776	4359.378	12.49998	-62.56378	0.2353225
29.63187	4356.038	12.38266	-62.54631	0.2563674
29.68598	4352.695	12.27907	-62.52848	0.2859973
29.74009	4349.342	12.19376	-62.51011	0.3232272
29.7942	4345.973	12.12911	-62.491	0.3667345
29.84831	4342.586	12.08404	-62.47092	0.4151666
29.90241	4339.189	12.0551	-62.44965	0.4672627
29.95652	4335.791	12.03726	-62.42699	0.5218917
30.01063	4332.401	12.02844	-62.40275	0.5780553
30.06474	4329.024	12.01879	-62.37679	0.634846
30.11885	4325.661	11.99809	-62.34903	0.6914157
30.17296	4322.31	11.96164	-62.31939	0.7469941
30.22706	4318.968	11.9092	-62.28791	0.8008703
30.28117	4315.63	11.84975	-62.25467	0.8523927
30.33528	4312.292	11.79794	-62.21983	0.9009932
30.38939	4308.958	11.76251	-62.18355	0.9461872
30.4435	4305.625	11.74064	-62.14607	0.9875553
30.4976	4302.286	11.72846	-62.10762	1.024753
30.55171	4298.931	11.72386	-62.06842	1.057498
30.60582	4295.553	11.72533	-62.02871	1.085583
30.65993	4292.146	11.73301	-61.98869	1.10885
30.71404	4288.712	11.74402	-61.94853	1.127206
30.76815	4285.258	11.75737	-61.90841	1.140592
30.82225	4281.792	11.77357	-61.86848	1.14898
30.87636	4278.325	11.79861	-61.82887	1.152385
30.93047	4274.871	11.83752	-61.78967	1.150904
30.98458	4271.442	11.88864	-61.75095	1.14474
31.03869	4268.044	11.95721	-61.71274	1.134179
31.09279	4264.674	12.0489	-61.67505	1.119596
31.1469	4261.325	12.16682	-61.63784	1.101447
31.20101	4257.986	12.3139	-61.6011	1.080261
31.25512	4254.651	12.48889	-61.56481	1.05663
31.30923	4251.315	12.68352	-61.52896	1.031214
31.36334	4247.971	12.88673	-61.49357	1.004712
31.41744	4244.616	13.08381	-61.45867	0.9778516
31.47155	4241.247	13.26191	-61.4243	0.9513717
31.52566	4237.867	13.41442	-61.39053	0.9259946
31.57977	4234.482	13.5416	-61.3574	0.9023879
31.63388	4231.098	13.65091	-61.32499	0.8811342
31.68799	4227.73	13.75292	-61.29334	0.8626795
31.74209	4224.386	13.85563	-61.2625	0.8472893
31.7962	4221.071	13.96183	-61.23243	0.8350282
31.85031	4217.785	14.06936	-61.20309	0.825783
31.90442	4214.525	14.17426	-61.17437	0.8192727
31.95853	4211.286	14.27787	-61.14611	0.8151068
32.01263	4208.062	14.37812	-61.1181	0.8128061
32.06674	4204.85	14.46334	-61.09011	0.8118283
32.12085	4201.649	14.52211	-61.06186	0.8116285
32.17496	4198.458	14.54916	-61.03305	0.8116995
32.22907	4195.271	14.54621	-61.00344	0.8116062
32.28318	4192.078	14.5163	-60.97279	0.8110045
32.33728	4188.872	14.46488	-60.94088	0.8096151
32.39139	4185.654	14.39817	-60.90758	0.8071886
32.4455	4182.422	14.32003	-60.87277	0.8035117
32.49961	4179.179	14.23527	-60.83643	0.7984048
32.55372	4175.927	14.14236	-60.79862	0.7917574
32.60783	4172.672	14.03986	-60.75946	0.7835352
32.66193	4169.418	13.92174	-60.71912	0.7737836
32.71604	4166.173	13.77953	-60.67787	0.7626145
32.77015	4162.938	13.60766	-60.63599	0.750177
32.82426	4159.703	13.40593	-60.59379	0.7366354
32.87836	4156.461	13.18036	-60.5516	0.7221571
32.93248	4153.217	12.94152	-60.5097	0.7069009
32.98658	4149.972	12.70094	-60.46836	0.6910121
33.04069	4146.726	12.46606	-60.42781	0.6746235
33.0948	4143.472	12.23586	-60.38823	0.6578631
33.14891	4140.208	12.0025	-60.34979	0.6408619
33.20301	4136.93	11.75852	-60.31258	0.6237373
33.25712	4133.638	11.50651	-60.27668	0.6065902
33.31123	4130.331	11.25451	-60.24214	0.589519
33.36534	4127.012	11.01358	-60.20896	0.5726154
33.41945	4123.683	10.7921	-60.17711	0.5559512
33.47356	4120.35	10.60075	-60.14656	0.5395712
33.52766	4117.016	10.4444	-60.11727	0.5234625
33.58177	4113.679	10.32025	-60.08919	0.5075535
33.63588	4110.341	10.22191	-60.06224	0.4917011
33.68999	4107.006	10.14682	-60.0363	0.4757132
33.7441	4103.676	10.094	-60.01123	0.4593733
33.79821	4100.351	10.06324	-59.98685	0.4424792
33.85231	4097.033	10.0568	-59.96297	0.4248529
33.90642	4093.72	10.07611	-59.93932	0.4063603
33.96053	4090.409	10.12125	-59.91565	0.3868976
34.01464	4087.097	10.1935	-59.89166	0.3663798
34.06875	4083.78	10.28689	-59.86704	0.3447565
34.12286	4080.456	10.39419	-59.8415	0.3220148
34.17696	4077.131	10.51655	-59.81471	0.2981895
34.23107	4073.815	10.65536	-59.78638	0.2733713
34.28518	4070.519	10.80829	-59.7562	0.2476939
34.33929	4067.257	10.96866	-59.72388	0.2213414
34.39339	4064.039	11.12752	-59.6891	0.194541
34.44751	4060.87	11.2822	-59.65162	0.16756
34.50161	4057.749	11.4328	-59.61123	0.140742
34.55572	4054.66	11.58548	-59.56782	0.1145984
34.60983	4051.59	11.74941	-59.52134	0.08999677
34.66394	4048.524	11.92511	-59.47185	0.06872244
34.71804	4045.456	12.10709	-59.41946	0.05458423
34.77215	4042.376	12.28187	-59.36437	0.05295185
34.82626	4039.273	12.43407	-59.30677	0.06386781
34.88037	4036.144	12.55315	-59.24695	0.08146819
34.93448	4032.992	12.64093	-59.18521	0.1013042
34.98859	4029.819	12.70746	-59.12188	0.1212718
35.04269	4026.627	12.76273	-59.05729	0.1403639
35.0968	4023.421	12.81188	-58.99181	0.1580345
35.15091	4020.208	12.85662	-58.92578	0.1739866
35.20502	4016.992	12.89849	-58.85958	0.1880588
35.25913	4013.775	12.9351	-58.79357	0.2001845
35.31324	4010.557	12.9639	-58.72808	0.2103979
35.36734	4007.341	12.98092	-58.66346	0.2188286
35.42145	4004.125	12.98309	-58.60001	0.2257092
35.47556	4000.908	12.96989	-58.53803	0.2313578
35.52967	3997.688	12.93837	-58.4778	0.2361961
35.58378	3994.459	12.88637	-58.41953	0.2407582
35.63789	3991.22	12.8185	-58.3634	0.2456416
35.69199	3987.967	12.74116	-58.30956	0.2515086
35.7461	3984.698	12.65867	-58.25811	0.2589897
35.80021	3981.415	12.57774	-58.20914	0.2686549
35.85432	3978.13	12.50119	-58.16269	0.2809587
35.90842	3974.858	12.42696	-58.1188	0.2961904
35.96254	3971.614	12.35465	-58.07748	0.3144523
36.01664	3968.411	12.28193	-58.03873	0.3356322
36.07075	3965.256	12.20557	-58.00253	0.3594182
36.12486	3962.15	12.12276	-57.96887	0.3853832
36.17897	3959.091	12.03737	-57.93769	0.4130233
36.23307	3956.069	11.95455	-57.90891	0.441827
36.28718	3953.074	11.87787	-57.8824	0.4712983
36.34129	3950.095	11.80222	-57.85796	0.5009797
36.3954	3947.121	11.72343	-57.83537	0.5304677
36.44951	3944.147	11.64031	-57.81435	0.5593917
36.50362	3941.166	11.55686	-57.79464	0.5874212
36.55772	3938.168	11.47926	-57.77595	0.6142706
36.61183	3935.151	11.41405	-57.75805	0.6396899
36.66594	3932.111	11.36682	-57.74068	0.6634872
36.72005	3929.043	11.33869	-57.72367	0.6855497
36.77416	3925.951	11.32817	-57.70682	0.705814
36.82827	3922.841	11.33201	-57.68998	0.7242907
36.88237	3919.728	11.34176	-57.67301	0.741019
36.93648	3916.626	11.35358	-57.65578	0.7560588
36.99059	3913.54	11.37328	-57.6382	0.7694558
37.0447	3910.469	11.40449	-57.62015	0.7812159
37.09881	3907.406	11.44531	-57.60157	0.7912871
37.15292	3904.344	11.4894	-57.58238	0.7995419
37.20702	3901.274	11.52698	-57.56254	0.8057943
37.26113	3898.188	11.55268	-57.54202	0.8098457
37.31524	3895.086	11.56439	-57.52081	0.8114998
37.36935	3891.968	11.56476	-57.49894	0.8106043
37.42345	3888.833	11.5616	-57.47644	0.8070545
37.47757	3885.685	11.56226	-57.45338	0.8008027
37.53167	3882.529	11.56968	-57.42983	0.7918629
37.58578	3879.374	11.58706	-57.40588	0.7803089
37.63989	3876.225	11.61695	-57.3816	0.7662641
37.694	3873.088	11.66131	-57.35709	0.7498991
37.7481	3869.97	11.72268	-57.33246	0.7314242
37.80221	3866.876	11.79971	-57.30781	0.711064
37.85632	3863.801	11.89684	-57.2832	0.6890502
37.91043	3860.736	12.01996	-57.25869	0.6656231
37.96454	3857.673	12.16494	-57.23433	0.6409931
38.01865	3854.603	12.32207	-57.21011	0.6153367
38.07275	3851.519	12.48084	-57.18602	0.5887847
38.12686	3848.417	12.63253	-57.162	0.5614457
38.18097	3845.294	12.76967	-57.13795	0.5334145
38.23508	3842.145	12.88866	-57.11376	0.5047873
38.28919	3838.97	12.98847	-57.08928	0.4756562
38.3433	3835.773	13.06925	-57.06433	0.4461463
38.3974	3832.562	13.13486	-57.03876	0.4163944
38.45151	3829.348	13.19332	-57.0124	0.3865758
38.50562	3826.14	13.24922	-56.9851	0.3568719
38.55973	3822.945	13.30854	-56.95677	0.3274832
38.61384	3819.768	13.37781	-56.92731	0.2986254
38.66795	3816.609	13.46178	-56.89669	0.2705334
38.72205	3813.463	13.56119	-56.86489	0.2434496
38.77616	3810.323	13.67697	-56.83188	0.217633
38.83027	3807.189	13.80251	-56.79767	0.1933132
38.88438	3804.064	13.92211	-56.76224	0.1706416
38.93848	3800.95	14.01893	-56.72558	0.1496455
38.9926	3797.849	14.08195	-56.68767	0.1301863
39.0467	3794.763	14.1072	-56.64846	0.1119713
39.10081	3791.689	14.09717	-56.60788	0.09459587
39.15492	3788.617	14.0595	-56.56588	0.07762175
39.20903	3785.543	14.00453	-56.52236	0.06065281
39.26313	3782.467	13.9363	-56.47725	0.04344553
39.31724	3779.397	13.85526	-56.43049	0.02626209
39.37135	3776.346	13.76402	-56.38207	0.01293121
39.42546	3773.323	13.66352	-56.33201	0.02080935
39.47957	3770.333	13.55472	-56.28041	0.04023458
39.53368	3767.38	13.44048	-56.22741	0.06216562
39.58778	3764.462	13.32599	-56.17318	0.08551206
39.64189	3761.568	13.21608	-56.11792	0.1099853
39.696	3758.686	13.11411	-56.06189	0.1354219
39.75011	3755.806	13.01392	-56.00534	0.1616716
39.80422	3752.918	12.90982	-55.94856	0.1885759
39.85833	3750.011	12.79825	-55.89181	0.2159676
39.91243	3747.079	12.67821	-55.83533	0.2436561
39.96654	3744.118	12.54762	-55.77933	0.2714204
40.02065	3741.125	12.40867	-55.72397	0.2989983
40.07476	3738.104	12.27149	-55.6694	0.3261039
40.12887	3735.059	12.14769	-55.61572	0.3524499
40.18298	3731.998	12.04312	-55.56298	0.3777512
40.23708	3728.926	11.958	-55.51127	0.4017446
40.29119	3725.845	11.8878	-55.46061	0.4241879
40.3453	3722.765	11.82574	-55.41103	0.4448487
40.39941	3719.7	11.77104	-55.36258	0.4635144
40.45351	3716.661	11.72342	-55.31528	0.4800116
40.50763	3713.651	11.68069	-55.26917	0.4942195
40.56173	3710.668	11.64157	-55.2243	0.506076
40.61584	3707.708	11.61003	-55.18069	0.5155759
40.66995	3704.759	11.59077	-55.13838	0.5227997
40.72406	3701.811	11.58732	-55.0974	0.5279018
40.77816	3698.854	11.60164	-55.05777	0.5311083
40.83227	3695.885	11.63736	-55.0195	0.5327073
40.88638	3692.9	11.69698	-54.98259	0.5330247
40.94049	3689.902	11.78263	-54.94701	0.5324299
40.9946	3686.897	11.89365	-54.91273	0.5313135
41.04871	3683.896	12.01797	-54.87971	0.5300923
41.10281	3680.906	12.1428	-54.84788	0.5291572
41.15692	3677.934	12.26246	-54.81713	0.528863
41.21103	3674.982	12.37401	-54.78735	0.5295083
41.26514	3672.049	12.48436	-54.75843	0.5312951
41.31925	3669.133	12.60516	-54.73022	0.534319
41.37336	3666.233	12.74287	-54.70264	0.5385669
41.42746	3663.343	12.89582	-54.67561	0.5439205
41.48157	3660.457	13.05497	-54.64908	0.5501778
41.53568	3657.564	13.21045	-54.62299	0.5570675
41.58979	3654.661	13.3514	-54.59729	0.5642821
41.64389	3651.747	13.47022	-54.57196	0.5714771
41.69801	3648.82	13.56363	-54.54699	0.578276
41.75211	3645.882	13.63637	-54.52238	0.584286
41.80622	3642.927	13.69739	-54.49816	0.5890909
41.86033	3639.958	13.75747	-54.47437	0.592283
41.91444	3636.974	13.8206	-54.45104	0.5934602
41.96854	3633.974	13.87993	-54.42828	0.5922534
42.02265	3630.962	13.92513	-54.40617	0.58834
42.07676	3627.943	13.94773	-54.38479	0.5814689
42.13087	3624.925	13.94226	-54.36422	0.5714747
42.18498	3621.915	13.90622	-54.34451	0.5582669
42.23909	3618.916	13.83951	-54.32568	0.5418348
42.29319	3615.928	13.74523	-54.30774	0.5222201
42.3473	3612.954	13.63045	-54.2906	0.499509
42.40141	3609.998	13.50643	-54.27414	0.4738455
42.45552	3607.068	13.38972	-54.25819	0.4454405
42.50963	3604.162	13.28665	-54.24256	0.4145974
42.56374	3601.277	13.19749	-54.22701	0.3817152
42.61784	3598.405	13.11946	-54.21128	0.3473171
42.67195	3595.537	13.04848	-54.1951	0.3120504
42.72606	3592.666	12.97988	-54.17822	0.2766822
42.78017	3589.784	12.90856	-54.16034	0.2421195
42.83428	3586.887	12.83163	-54.14122	0.209444
42.88839	3583.98	12.75221	-54.12064	0.1799465
42.94249	3581.067	12.67912	-54.09842	0.1551268
42.9966	3578.154	12.61691	-54.07446	0.1365231
43.05071	3575.242	12.56677	-54.04866	0.1251753
43.10482	3572.334	12.52956	-54.021	0.1208771
43.15892	3569.437	12.50096	-53.99148	0.1219121
43.21304	3566.551	12.48084	-53.96013	0.1257456
