T[Â°C]	350nm [counts / mm]	S.D.	First derivative	S.D. of first derivative
20.00094	3311.947	28.12701	-47.52275	2.842515
20.05489	3309.407	28.24176	-47.48925	2.789385
20.10884	3306.866	28.3501	-47.45599	2.736125
20.16279	3304.324	28.45167	-47.42299	2.682727
20.21674	3301.779	28.54603	-47.39024	2.629181
20.27069	3299.231	28.63305	-47.35775	2.575486
20.32465	3296.679	28.71258	-47.32553	2.521637
20.3786	3294.123	28.78501	-47.2936	2.467637
20.43255	3291.561	28.84993	-47.26195	2.41349
20.4865	3288.995	28.90783	-47.23058	2.359201
20.54045	3286.423	28.959	-47.19949	2.304784
20.5944	3283.847	29.0044	-47.1687	2.250248
20.64835	3281.268	29.04574	-47.1382	2.195612
20.7023	3278.687	29.08496	-47.10799	2.140897
20.75625	3276.108	29.12449	-47.07806	2.086128
20.8102	3273.536	29.16794	-47.04842	2.031329
20.86415	3270.976	29.21879	-47.01905	1.976538
20.9181	3268.438	29.27675	-46.98996	1.921788
20.97205	3265.924	29.32576	-46.96112	1.867125
21.026	3263.362	29.25879	-46.93254	1.812598
21.07995	3260.802	29.17769	-46.90418	1.758257
21.1339	3258.238	29.08021	-46.87605	1.704163
21.18785	3255.676	28.96025	-46.84811	1.650386
21.2418	3253.116	28.8133	-46.82037	1.596994
21.29575	3250.559	28.63695	-46.79278	1.544066
21.3497	3248.006	28.42757	-46.76535	1.491686
21.40366	3245.462	28.18763	-46.73804	1.43995
21.45761	3242.93	27.92459	-46.71084	1.388953
21.51156	3240.415	27.64657	-46.68374	1.338802
21.56551	3237.923	27.36001	-46.6567	1.289613
21.61946	3235.459	27.07106	-46.62972	1.241505
21.67341	3233.025	26.78668	-46.60277	1.194608
21.72736	3230.617	26.5134	-46.57583	1.149064
21.78131	3228.226	26.25273	-46.54887	1.105021
21.83526	3225.84	26.00412	-46.52187	1.062633
21.88921	3223.449	25.76346	-46.49479	1.022074
21.94316	3221.047	25.526	-46.46762	0.9835154
21.99711	3218.635	25.29307	-46.4403	0.9471463
22.05106	3216.216	25.06847	-46.41282	0.9131579
22.10501	3213.79	24.8573	-46.38515	0.8817396
22.15896	3211.356	24.66552	-46.35725	0.853075
22.21291	3208.913	24.49914	-46.32913	0.8273076
22.26686	3206.459	24.35918	-46.30078	0.8045154
22.32081	3203.99	24.24296	-46.27226	0.7846584
22.37476	3201.503	24.14987	-46.24366	0.7674894
22.42871	3198.999	24.08302	-46.21519	0.7524721
22.48266	3196.48	24.04222	-46.18716	0.7386923
22.53662	3193.95	24.02549	-46.16004	0.7248539
22.59057	3191.413	24.03314	-46.13442	0.7095912
22.64452	3188.873	24.0673	-46.1171	0.6886606
22.69847	3186.331	24.13082	-46.10097	0.6683544
22.75242	3183.79	24.22624	-46.08613	0.6485063
22.80637	3181.249	24.35071	-46.07264	0.6289521
22.86032	3178.71	24.49729	-46.06054	0.6095282
22.91427	3176.182	24.66087	-46.04986	0.5900798
22.96822	3173.668	24.83873	-46.04063	0.5704643
23.02217	3171.167	25.02969	-46.03284	0.5505505
23.07612	3168.675	25.23492	-46.02649	0.5302221
23.13007	3166.19	25.45238	-46.02154	0.509394
23.18402	3163.712	25.67808	-46.01797	0.4880347
23.23797	3161.238	25.90538	-46.01575	0.4661481
23.29192	3158.766	26.12643	-46.01484	0.4437913
23.34587	3156.298	26.33403	-46.01515	0.4210493
23.39982	3153.837	26.51951	-46.01662	0.3980321
23.45377	3151.379	26.67584	-46.01913	0.3748719
23.50772	3148.917	26.79821	-46.02254	0.3517146
23.56167	3146.444	26.88509	-46.0267	0.3287245
23.61563	3143.958	26.94011	-46.03143	0.3060992
23.66958	3141.463	26.97188	-46.03656	0.2840713
23.72353	3138.963	26.98966	-46.04194	0.262935
23.77748	3136.458	27.00056	-46.04738	0.2431191
23.83143	3133.949	27.00956	-46.05273	0.2252628
23.88538	3131.441	27.01533	-46.0578	0.2102806
23.93933	3128.933	27.01665	-46.06242	0.19938
23.99328	3126.428	27.01018	-46.06643	0.1939315
24.04723	3123.93	26.98908	-46.06967	0.1951323
24.10118	3121.445	26.9482	-46.07196	0.2035596
24.15513	3118.971	26.8886	-46.07315	0.2189542
24.20908	3116.511	26.81539	-46.07312	0.2403915
24.26303	3114.062	26.73185	-46.07172	0.2666574
24.31698	3111.621	26.63963	-46.06886	0.2965417
24.37093	3109.18	26.54239	-46.06451	0.3289689
24.42488	3106.736	26.44682	-46.05867	0.3630395
24.47883	3104.284	26.35839	-46.0514	0.3980287
24.53278	3101.825	26.28257	-46.04284	0.4333619
24.58673	3099.362	26.22383	-46.0331	0.4685825
24.64068	3096.896	26.18067	-46.02235	0.5033224
24.69464	3094.431	26.15204	-46.01077	0.5372766
24.74859	3091.973	26.13817	-45.99853	0.5701886
24.80254	3089.521	26.13307	-45.98582	0.6018065
24.85649	3087.077	26.12744	-45.97281	0.6318891
24.91044	3084.635	26.11244	-45.95966	0.6602007
24.96439	3082.188	26.07937	-45.94653	0.6865131
25.01834	3079.728	26.01521	-45.93353	0.7106062
25.07229	3077.249	25.91029	-45.92078	0.7322609
25.12624	3074.754	25.76363	-45.90837	0.7512764
25.18019	3072.241	25.58366	-45.89638	0.7674906
25.23414	3069.711	25.38141	-45.88487	0.7807738
25.28809	3067.167	25.1713	-45.87389	0.791059
25.34204	3064.615	24.96735	-45.86347	0.7983397
25.39599	3062.064	24.78001	-45.85362	0.8026794
25.44994	3059.52	24.61428	-45.84431	0.8042232
25.50389	3056.982	24.47078	-45.83553	0.803207
25.55784	3054.455	24.34608	-45.82721	0.7999274
25.61179	3051.942	24.23845	-45.81924	0.7947199
25.66574	3049.444	24.14381	-45.81156	0.7879513
25.71969	3046.955	24.05751	-45.80405	0.7799841
25.77365	3044.468	23.97654	-45.79661	0.7711614
25.8276	3041.974	23.89504	-45.78908	0.7618154
25.88155	3039.467	23.80931	-45.78131	0.7522432
25.9355	3036.946	23.71934	-45.77316	0.7426961
25.98945	3034.416	23.62592	-45.76443	0.7333746
26.0434	3031.885	23.52967	-45.75497	0.7244149
26.09735	3029.366	23.43844	-45.74459	0.7158968
26.1513	3026.867	23.36521	-45.73318	0.707855
26.20525	3024.395	23.32435	-45.7206	0.7003086
26.2592	3021.955	23.32798	-45.70677	0.693238
26.31315	3019.544	23.38047	-45.69162	0.6865939
26.3671	3017.16	23.47798	-45.67511	0.6802862
26.42105	3014.796	23.61013	-45.65725	0.6741994
26.475	3012.443	23.7622	-45.63808	0.6682231
26.52895	3010.092	23.92105	-45.61768	0.6622575
26.5829	3007.731	24.07211	-45.59615	0.656244
26.63685	3005.354	24.20256	-45.57362	0.6501554
26.6908	3002.954	24.30517	-45.55023	0.6440111
26.74475	3000.533	24.37488	-45.52613	0.6378549
26.7987	2998.096	24.40596	-45.50147	0.6317371
26.85266	2995.646	24.39931	-45.47643	0.6257109
26.9066	2993.19	24.36773	-45.45115	0.619845
26.96056	2990.729	24.32534	-45.42578	0.6142133
27.01451	2988.267	24.28588	-45.40047	0.6089022
27.06846	2985.805	24.25854	-45.37535	0.6039911
27.12241	2983.344	24.24887	-45.35057	0.5995475
27.17636	2980.886	24.25779	-45.32624	0.5956151
27.23031	2978.429	24.28161	-45.3025	0.5922017
27.28426	2975.966	24.31451	-45.27945	0.5892834
27.33821	2973.493	24.35142	-45.25717	0.5868
27.39216	2971.006	24.39001	-45.23571	0.58465
27.44611	2968.503	24.42596	-45.21508	0.5827163
27.50006	2965.988	24.45055	-45.19527	0.580854
27.55401	2963.467	24.45663	-45.17624	0.5789167
27.60796	2960.948	24.4395	-45.15796	0.5767624
27.66191	2958.435	24.40034	-45.14042	0.5742998
27.71586	2955.934	24.34547	-45.12359	0.5714694
27.76981	2953.446	24.28251	-45.10743	0.5682567
27.82376	2950.973	24.2211	-45.09187	0.5646989
27.87771	2948.519	24.16685	-45.07683	0.5608657
27.93167	2946.085	24.12037	-45.0622	0.5568717
27.98561	2943.672	24.0774	-45.04785	0.5528367
28.03957	2941.279	24.02949	-45.03362	0.5489013
28.09352	2938.901	23.96904	-45.01935	0.5452023
28.14747	2936.533	23.8895	-45.00489	0.541886
28.20142	2934.17	23.7886	-44.99007	0.5390953
28.25537	2931.806	23.66598	-44.97474	0.5369488
28.30932	2929.44	23.52458	-44.95876	0.5355315
28.36327	2927.074	23.36706	-44.94199	0.5348831
28.41722	2924.713	23.19472	-44.92436	0.5349818
28.47117	2922.354	23.0107	-44.90581	0.5357764
28.52512	2919.996	22.82159	-44.88635	0.5371565
28.57907	2917.633	22.63906	-44.86601	0.5390015
28.63302	2915.264	22.47516	-44.84487	0.5411835
28.68697	2912.886	22.33754	-44.82302	0.5435985
28.74092	2910.498	22.22522	-44.80058	0.5461436
28.79487	2908.094	22.12889	-44.77768	0.5487224
28.84882	2905.678	22.04364	-44.75445	0.5512447
28.90277	2903.252	21.96732	-44.73106	0.5536304
28.95672	2900.818	21.90129	-44.70767	0.5558221
29.01068	2898.372	21.84609	-44.68447	0.557798
29.06462	2895.911	21.80266	-44.66163	0.5595514
29.11858	2893.44	21.77092	-44.63932	0.5611109
29.17253	2890.964	21.74934	-44.6177	0.5625027
29.22648	2888.489	21.73524	-44.5969	0.5637744
29.28043	2886.017	21.72851	-44.57705	0.5649568
29.33438	2883.551	21.73434	-44.5582	0.5660639
29.38833	2881.088	21.76233	-44.54041	0.5670879
29.44228	2878.63	21.81925	-44.52367	0.568011
29.49623	2876.182	21.90703	-44.50795	0.5687906
29.55018	2873.749	22.02019	-44.49323	0.5693405
29.60413	2871.33	22.14923	-44.47947	0.5695616
29.65808	2868.928	22.28271	-44.46665	0.5693263
29.71203	2866.539	22.40759	-44.45474	0.5685095
29.76598	2864.158	22.51719	-44.44374	0.5669982
29.81993	2861.78	22.60852	-44.43364	0.5647033
29.87388	2859.4	22.67961	-44.42441	0.5615828
29.92783	2857.02	22.73045	-44.41605	0.5576274
29.98178	2854.643	22.7644	-44.40854	0.5528795
30.03573	2852.274	22.78947	-44.40187	0.5474212
30.08969	2849.917	22.81256	-44.39601	0.5413828
30.14363	2847.57	22.83754	-44.39091	0.5349264
30.19759	2845.23	22.86468	-44.3865	0.5282388
30.25154	2842.89	22.89434	-44.38266	0.5215256
30.30549	2840.547	22.92611	-44.37928	0.5149891
30.35944	2838.202	22.95404	-44.37623	0.5088345
30.41339	2835.857	22.96998	-44.37342	0.5032321
30.46734	2833.511	22.96505	-44.37075	0.4983309
30.52129	2831.163	22.93398	-44.36814	0.4942338
30.57524	2828.811	22.87903	-44.36556	0.4910029
30.62919	2826.452	22.80548	-44.36294	0.4886619
30.68314	2824.083	22.71651	-44.36023	0.4871864
30.73709	2821.699	22.61377	-44.3574	0.4864969
30.79104	2819.3	22.49985	-44.35441	0.4864691
30.84499	2816.887	22.37974	-44.35127	0.4869468
30.89894	2814.466	22.26093	-44.348	0.4877529
30.95289	2812.038	22.14942	-44.34465	0.4887045
31.00684	2809.606	22.05083	-44.34129	0.4896485
31.06079	2807.177	21.96978	-44.33795	0.4904444
31.11474	2804.757	21.90855	-44.33467	0.4909987
31.1687	2802.351	21.86204	-44.33146	0.4912399
31.22264	2799.961	21.81875	-44.32829	0.4911017
31.2766	2797.589	21.7671	-44.32509	0.4905309
31.33055	2795.231	21.69947	-44.32181	0.4894858
31.3845	2792.881	21.61227	-44.31835	0.4879512
31.43845	2790.53	21.50455	-44.31461	0.4859238
31.4924	2788.17	21.37739	-44.31049	0.4834174
31.54635	2785.795	21.23477	-44.30587	0.4804348
31.6003	2783.404	21.08728	-44.30059	0.4769765
31.65425	2781.001	20.94777	-44.29454	0.4730193
31.7082	2778.593	20.82603	-44.28759	0.4685341
31.76215	2776.185	20.728	-44.27962	0.463464
31.8161	2773.78	20.6564	-44.27055	0.4577635
31.87005	2771.38	20.60912	-44.26031	0.4513925
31.924	2768.986	20.57865	-44.2489	0.4443369
31.97795	2766.599	20.55931	-44.23633	0.4366004
32.0319	2764.218	20.54711	-44.22265	0.4282062
32.08585	2761.84	20.53734	-44.20793	0.419195
32.1398	2759.466	20.5273	-44.19225	0.4096146
32.19376	2757.09	20.52082	-44.17567	0.3995298
32.2477	2754.706	20.52259	-44.15832	0.3890207
32.30165	2752.305	20.53199	-44.14028	0.3781762
32.35561	2749.878	20.54679	-44.12168	0.367106
32.40956	2747.422	20.56687	-44.10265	0.3559438
32.4635	2744.944	20.5928	-44.08328	0.3448297
32.51746	2742.456	20.62862	-44.06371	0.3339219
32.57141	2739.967	20.67293	-44.04402	0.3233704
32.62536	2737.488	20.72423	-44.02427	0.3132904
32.67931	2735.027	20.78626	-44.00452	0.3037601
32.73326	2732.591	20.86229	-43.98478	0.2948302
32.78721	2730.183	20.95411	-43.9651	0.2865413
32.84116	2727.803	21.0594	-43.94549	0.2789472
32.89511	2725.445	21.16976	-43.92603	0.272127
32.94906	2723.1	21.27571	-43.90673	0.266182
33.00301	2720.76	21.36912	-43.88764	0.26126
33.05696	2718.417	21.4463	-43.86875	0.2575424
33.11091	2716.065	21.50509	-43.85003	0.2552491
33.16486	2713.697	21.54351	-43.83143	0.2546009
33.21881	2711.312	21.56547	-43.81287	0.2557793
33.27276	2708.917	21.57749	-43.79427	0.2588913
33.32671	2706.522	21.58782	-43.77551	0.2639503
33.38066	2704.134	21.60229	-43.75652	0.2708594
33.43462	2701.761	21.62564	-43.73717	0.279433
33.48857	2699.406	21.65618	-43.71734	0.2893981
33.54251	2697.07	21.68932	-43.6969	0.3004426
33.59647	2694.754	21.71896	-43.67573	0.3122236
33.65042	2692.457	21.73554	-43.65369	0.3244004
33.70437	2690.179	21.7312	-43.63066	0.336656
33.75832	2687.914	21.70427	-43.60655	0.3486981
33.81227	2685.656	21.65812	-43.58127	0.3602743
33.86622	2683.399	21.59578	-43.55474	0.3711762
33.92017	2681.138	21.52145	-43.5269	0.3812259
33.97412	2678.865	21.43913	-43.4977	0.3902604
34.02807	2676.576	21.35503	-43.46713	0.3981328
34.08202	2674.267	21.27274	-43.43517	0.4046805
34.13597	2671.942	21.19544	-43.40189	0.4097498
34.18992	2669.611	21.12625	-43.36736	0.4131924
34.24387	2667.282	21.06318	-43.33175	0.4148858
34.29782	2664.962	21.00211	-43.29522	0.4147496
34.35177	2662.653	20.94303	-43.25799	0.412742
34.40572	2660.355	20.88774	-43.22028	0.4088897
34.45967	2658.064	20.83584	-43.18229	0.4032704
34.51363	2655.774	20.78055	-43.14424	0.3960077
34.56758	2653.476	20.71479	-43.10631	0.3872675
34.62152	2651.166	20.63588	-43.06867	0.3772504
34.67548	2648.839	20.5433	-43.03147	0.3661798
34.72943	2646.491	20.4369	-42.99483	0.3543051
34.78338	2644.121	20.31996	-42.95886	0.3418858
34.83733	2641.728	20.19785	-42.92363	0.3291593
34.89128	2639.314	20.07631	-42.88918	0.3163398
34.94523	2636.885	19.9635	-42.85557	0.3036065
34.99918	2634.449	19.86622	-42.82283	0.2911009
35.05313	2632.016	19.7865	-42.79099	0.2789114
35.10708	2629.59	19.72185	-42.76007	0.2670914
35.16103	2627.177	19.66866	-42.73007	0.255674
35.21498	2624.78	19.6256	-42.70098	0.244704
35.26893	2622.405	19.58963	-42.67276	0.23425
35.32288	2620.053	19.55388	-42.64534	0.2244052
35.37683	2617.723	19.51356	-42.61864	0.2152946
35.43078	2615.408	19.46976	-42.59256	0.2070773
35.48473	2613.103	19.42714	-42.56702	0.1999396
35.53868	2610.801	19.392	-42.5419	0.1941073
35.59264	2608.499	19.36866	-42.51712	0.1897947
35.64659	2606.195	19.35947	-42.49261	0.1871713
35.70053	2603.89	19.36628	-42.4683	0.1863202
35.75449	2601.589	19.39077	-42.44417	0.1872153
35.80844	2599.297	19.43459	-42.42018	0.1897308
35.86239	2597.023	19.49722	-42.39633	0.1936411
35.91634	2594.769	19.578	-42.37262	0.1986705
35.97029	2592.539	19.6775	-42.34907	0.2045412
36.02424	2590.33	19.79546	-42.32569	0.2109904
36.07819	2588.14	19.92768	-42.30254	0.2177832
36.13214	2585.961	20.07031	-42.27971	0.2247299
36.18609	2583.787	20.21746	-42.25729	0.2316751
36.24004	2581.611	20.36143	-42.23545	0.2385077
36.29399	2579.422	20.49633	-42.21432	0.2451603
36.34794	2577.214	20.62071	-42.19408	0.2515979
36.40189	2574.985	20.73269	-42.17491	0.2578279
36.45584	2572.736	20.82855	-42.15698	0.2638919
36.50979	2570.472	20.90575	-42.14047	0.2698484
36.56374	2568.197	20.96345	-42.12556	0.2757637
36.61769	2565.923	21.00556	-42.1124	0.2817034
36.67165	2563.655	21.03855	-42.10117	0.2877407
36.7256	2561.398	21.06651	-42.09197	0.2939424
36.77954	2559.151	21.09093	-42.08493	0.3003963
36.8335	2556.913	21.11092	-42.08009	0.3072149
36.88745	2554.68	21.1233	-42.0775	0.314525
36.9414	2552.449	21.12265	-42.07717	0.3224698
36.99535	2550.22	21.10356	-42.07909	0.3311926
37.0493	2547.99	21.06655	-42.08324	0.3408267
37.10325	2545.754	21.01342	-42.08958	0.351494
37.1572	2543.514	20.94852	-42.09802	0.363284
37.21115	2541.267	20.87642	-42.10845	0.376253
37.2651	2539.013	20.8003	-42.12072	0.3904119
37.31905	2536.754	20.72254	-42.13462	0.4057182
37.373	2534.492	20.64625	-42.14991	0.4220773
37.42695	2532.226	20.57612	-42.16632	0.4393374
37.4809	2529.959	20.51615	-42.18358	0.4573036
37.53485	2527.692	20.46847	-42.20141	0.4757366
37.5888	2525.426	20.43497	-42.21951	0.4943903
37.64275	2523.16	20.41708	-42.23758	0.5130045
37.6967	2520.895	20.41172	-42.25531	0.531342
37.75066	2518.633	20.4095	-42.27238	0.5491885
37.80461	2516.379	20.39737	-42.28847	0.5663541
37.85855	2514.133	20.3655	-42.30329	0.5826753
37.91251	2511.891	20.30917	-42.31658	0.5980297
37.96646	2509.647	20.23008	-42.3281	0.6123475
38.02041	2507.396	20.1312	-42.33763	0.6255845
38.07436	2505.133	20.01437	-42.34499	0.6377382
38.12831	2502.855	19.88108	-42.35002	0.6488073
38.18226	2500.566	19.73714	-42.3526	0.6588019
38.23621	2498.27	19.59048	-42.35263	0.6677397
38.29016	2495.968	19.44978	-42.35007	0.6756158
38.34411	2493.657	19.32173	-42.34489	0.6824375
38.39806	2491.334	19.2149	-42.3371	0.6882128
38.45201	2488.997	19.13258	-42.32676	0.6929609
38.50596	2486.643	19.06974	-42.31394	0.6966954
38.55991	2484.275	19.01816	-42.29873	0.6994311
38.61386	2481.9	18.9746	-42.28127	0.7011695
38.66781	2479.524	18.93614	-42.2617	0.701907
38.72176	2477.15	18.90034	-42.24022	0.7016515
38.77571	2474.781	18.86618	-42.21705	0.7004394
38.82967	2472.415	18.83482	-42.19244	0.6983293
38.88362	2470.049	18.81075	-42.16665	0.6954197
38.93756	2467.681	18.79205	-42.13998	0.6918444
38.99152	2465.312	18.77094	-42.11272	0.6877674
39.04547	2462.939	18.74636	-42.08512	0.6833873
39.09942	2460.565	18.72449	-42.05744	0.6789182
39.15337	2458.194	18.71124	-42.02989	0.6745928
39.20732	2455.828	18.71187	-42.00268	0.6706282
39.26127	2453.471	18.72769	-41.97596	0.6672206
39.31522	2451.127	18.75632	-41.94984	0.6645301
39.36917	2448.802	18.79466	-41.92445	0.6626748
39.42312	2446.495	18.83505	-41.89983	0.661723
39.47707	2444.211	18.87073	-41.87605	0.6616881
39.53102	2441.946	18.89405	-41.85314	0.6625341
39.58497	2439.697	18.89856	-41.83113	0.6641803
39.63892	2437.458	18.88393	-41.81002	0.6665251
39.69287	2435.224	18.852	-41.78981	0.6694386
39.74682	2432.991	18.80541	-41.77046	0.6728027
39.80077	2430.76	18.74853	-41.75195	0.6764861
39.85472	2428.534	18.68585	-41.73421	0.6803663
39.90868	2426.32	18.62103	-41.71719	0.6843124
39.96263	2424.124	18.56322	-41.70078	0.6882002
40.01657	2421.945	18.52212	-41.68487	0.6919155
40.07053	2419.782	18.50521	-41.6693	0.6953595
40.12448	2417.627	18.51101	-41.65395	0.6984397
40.17843	2415.477	18.53422	-41.63867	0.7010749
40.23238	2413.331	18.56631	-41.62337	0.7031853
40.28633	2411.19	18.59695	-41.60798	0.7046814
40.34028	2409.056	18.6182	-41.59245	0.7054655
40.39423	2406.926	18.6276	-41.57676	0.7054433
40.44818	2404.798	18.6257	-41.56087	0.704519
40.50213	2402.666	18.61242	-41.54479	0.7026042
40.55608	2400.531	18.58879	-41.52847	0.6995888
40.61003	2398.391	18.55562	-41.51191	0.6953593
40.66398	2396.247	18.51411	-41.49511	0.6897848
40.71793	2394.103	18.46496	-41.47811	0.6827592
40.77188	2391.959	18.40795	-41.46099	0.6741949
40.82583	2389.817	18.35011	-41.44383	0.6640276
40.87978	2387.676	18.3023	-41.42675	0.6522261
40.93373	2385.535	18.26539	-41.40985	0.6388025
40.98769	2383.389	18.23298	-41.39325	0.6237993
41.04163	2381.235	18.19883	-41.37705	0.6072767
41.09558	2379.07	18.15738	-41.36137	0.5893272
41.14954	2376.887	18.10518	-41.3463	0.570062
41.20349	2374.681	18.03847	-41.33192	0.549614
41.25744	2372.446	17.9529	-41.31829	0.5281245
41.31139	2370.177	17.84462	-41.30545	0.5057446
41.36534	2367.872	17.71156	-41.29341	0.4826256
41.41929	2365.531	17.55708	-41.28215	0.4589233
41.47324	2363.16	17.38989	-41.27163	0.4347654
41.52719	2360.77	17.21768	-41.26176	0.4102456
41.58114	2358.374	17.04806	-41.25246	0.3854447
41.63509	2355.986	16.889	-41.24363	0.3604248
41.68904	2353.611	16.74857	-41.23514	0.3352295
41.74299	2351.254	16.63326	-41.22685	0.3098895
41.79694	2348.912	16.54749	-41.21863	0.2844161
41.85089	2346.584	16.48659	-41.2103	0.2588079
41.90484	2344.269	16.44283	-41.20168	0.2330489
41.95879	2341.966	16.41054	-41.19255	0.2071174
42.01274	2339.67	16.38935	-41.1827	0.181004
42.0667	2337.379	16.37796	-41.1719	0.1547104
42.12064	2335.086	16.37605	-41.15994	0.1282672
42.17459	2332.788	16.38391	-41.14664	0.1017713
42.22855	2330.485	16.3999	-41.13184	0.07543965
42.2825	2328.182	16.41826	-41.11543	0.04991863
42.33645	2325.882	16.43434	-41.09732	0.02805345
42.3904	2323.591	16.44777	-41.07745	0.02429917
42.44435	2321.317	16.46493	-41.0558	0.04358567
42.4983	2319.068	16.49656	-41.03236	0.06849133
42.55225	2316.853	16.55005	-41.00714	0.09443179
42.6062	2314.677	16.62929	-40.9802	0.1204546
42.66015	2312.54	16.73417	-40.95162	0.1462064
42.7141	2310.43	16.86127	-40.92154	0.1714901
42.76805	2308.336	17.0048	-40.89009	0.1961655
42.822	2306.247	17.15914	-40.85748	0.220119
42.87595	2304.149	17.31766	-40.82386	0.2432412
42.9299	2302.03	17.4734	-40.78944	0.2654255
42.98385	2299.884	17.6185	-40.75439	0.2865596
43.0378	2297.711	17.74512	-40.71893	0.3065115
43.09175	2295.517	17.84691	-40.68329	0.3251382
43.14571	2293.31	17.9227	-40.64771	0.3422761
